#Wave		#Intensity
1585.210938	23830.039063
1584.209961	23672.687500
1583.208984	23800.130859
1582.208008	24137.234375
1581.206055	23685.433594
1580.204102	23665.552734
1579.202148	23483.501953
1578.200195	23491.109375
1577.198242	23516.171875
1576.195313	23648.443359
1575.192383	23451.583984
1574.189453	23324.595703
1573.186523	23359.636719
1572.182617	23287.529297
1571.178711	23389.816406
1570.174805	23021.371094
1569.170898	23337.800781
1568.166992	22912.261719
1567.162109	23119.070313
1566.158203	23022.212891
1565.153320	23166.714844
1564.147461	23415.625000
1563.142578	23323.738281
1562.136719	23299.017578
1561.130859	23319.050781
1560.125000	23734.230469
1559.119141	23826.220703
1558.113281	24084.617188
1557.106445	24067.210938
1556.099609	24109.408203
1555.092773	24824.396484
1554.084961	24819.255859
1553.078125	25387.380859
1552.070313	25406.935547
1551.062500	25838.265625
1550.054688	26381.023438
1549.045898	26660.714844
1548.038086	27411.318359
1547.029297	28084.773438
1546.020508	28844.681641
1545.011719	29173.179688
1544.001953	29818.599609
1542.992188	30550.431641
1541.982422	31111.113281
1540.972656	31550.261719
1539.962891	32199.603516
1538.952148	32108.804688
1537.942383	32465.828125
1536.931641	32454.160156
1535.919922	32185.308594
1534.909180	32055.023438
1533.897461	31383.441406
1532.886719	30956.804688
1531.874023	30614.355469
1530.862305	29768.085938
1529.850586	29156.804688
1528.837891	28079.066406
1527.825195	27559.732422
1526.812500	27001.119141
1525.799805	26756.150391
1524.786133	26015.349609
1523.772461	25343.927734
1522.758789	25612.437500
1521.745117	24623.287109
1520.731445	24509.716797
1519.716797	24428.234375
1518.702148	24063.394531
1517.687500	24203.773438
1516.672852	23782.474609
1515.657227	24043.523438
1514.642578	24400.488281
1513.626953	24164.035156
1512.610352	24203.332031
1511.594727	23999.003906
1510.579102	23866.105469
1509.562500	24006.283203
1508.545898	23984.095703
1507.529297	24315.962891
1506.511719	24219.974609
1505.494141	24158.431641
1504.477539	24205.027344
1503.458984	24647.115234
1502.441406	24379.207031
1501.423828	24573.060547
1500.405273	24300.365234
1499.386719	24167.693359
1498.368164	24290.296875
1497.348633	24376.046875
1496.330078	24189.470703
1495.310547	24471.404297
1494.291016	23924.435547
1493.271484	24338.687500
1492.250977	24056.679688
1491.231445	24463.378906
1490.210938	24142.259766
1489.190430	24477.736328
1488.168945	24298.785156
1487.148438	24352.511719
1486.126953	24261.785156
1485.105469	24450.105469
1484.083984	24557.597656
1483.061523	24975.742188
1482.040039	24870.281250
1481.017578	24906.697266
1479.995117	25099.572266
1478.971680	25615.027344
1477.949219	25768.570313
1476.925781	26166.388672
1475.902344	26375.937500
1474.878906	26849.175781
1473.855469	27307.566406
1472.831055	27819.474609
1471.806641	28489.824219
1470.782227	29042.757813
1469.757813	29297.798828
1468.733398	30038.162109
1467.708008	30868.455078
1466.682617	31754.482422
1465.657227	32311.033203
1464.631836	33369.441406
1463.605469	34342.121094
1462.579102	35726.128906
1461.552734	36532.277344
1460.526367	37647.371094
1459.500000	38572.085938
1458.472656	39131.269531
1457.445313	39590.433594
1456.417969	40034.804688
1455.390625	39805.113281
1454.362305	39745.769531
1453.334961	39343.574219
1452.306641	38404.230469
1451.277344	38063.242188
1450.249023	36599.617188
1449.219727	35641.984375
1448.191406	34349.511719
1447.162109	33380.597656
1446.131836	32365.945313
1445.102539	31375.990234
1444.072266	30721.402344
1443.041992	29555.046875
1442.011719	29000.582031
1440.981445	28589.460938
1439.950195	28130.005859
1438.918945	27636.794922
1437.887695	27320.751953
1436.856445	26840.029297
1435.825195	26437.046875
1434.792969	26487.273438
1433.760742	26108.750000
1432.728516	26197.767578
1431.696289	25688.714844
1430.663086	25569.601563
1429.629883	25186.736328
1428.596680	25208.115234
1427.563477	25016.595703
1426.530273	24624.406250
1425.496094	24396.812500
1424.461914	24135.466797
1423.427734	24159.451172
1422.393555	24089.173828
1421.358398	23869.125000
1420.323242	23313.390625
1419.288086	23731.187500
1418.252930	23632.078125
1417.217773	23612.673828
1416.181641	23578.792969
1415.145508	23716.259766
1414.109375	23783.701172
1413.073242	23648.492188
1412.036133	23901.611328
1411.000000	24103.990234
1409.962891	24253.250000
1408.924805	24631.406250
1407.887695	24696.154297
1406.849609	25433.015625
1405.812500	25873.310547
1404.773438	26766.142578
1403.735352	26994.103516
1402.697266	27775.601563
1401.658203	27608.568359
1400.619141	28327.050781
1399.580078	28564.111328
1398.540039	28524.484375
1397.500977	28780.636719
1396.460938	28738.574219
1395.420898	29011.396484
1394.380859	28318.060547
1393.339844	28007.023438
1392.298828	28128.492188
1391.257813	27774.392578
1390.216797	27660.548828
1389.175781	27726.792969
1388.133789	28081.019531
1387.091797	27887.990234
1386.049805	28143.669922
1385.007813	28245.730469
1383.964844	28868.130859
1382.922852	29180.982422
1381.879883	29615.951172
1380.835938	29890.166016
1379.792969	30027.687500
1378.749023	30371.167969
1377.706055	30712.109375
1376.661133	30856.550781
1375.617188	31216.396484
1374.573242	31236.203125
1373.528320	31622.138672
1372.483398	31294.923828
1371.438477	31388.847656
1370.392578	31408.591797
1369.347656	31512.013672
1368.301758	31462.394531
1367.255859	31422.351563
1366.208984	31324.976563
1365.163086	31375.759766
1364.116211	31550.728516
1363.069336	31493.976563
1362.022461	31702.267578
1360.974609	31764.857422
1359.927734	31798.781250
1358.879883	31730.085938
1357.832031	31735.371094
1356.783203	32205.742188
1355.735352	32425.533203
1354.686523	32766.816406
1353.637695	33391.601563
1352.588867	33920.800781
1351.539063	34342.558594
1350.490234	35462.089844
1349.440430	36171.515625
1348.390625	36942.546875
1347.339844	37787.054688
1346.290039	38514.578125
1345.239258	39593.976563
1344.188477	40544.449219
1343.137695	41173.406250
1342.085938	41942.406250
1341.034180	42047.734375
1339.982422	43605.417969
1338.930664	44043.066406
1337.878906	44392.617188
1336.826172	44905.929688
1335.773438	45098.386719
1334.720703	44977.312500
1333.667969	45107.941406
1332.614258	44469.464844
1331.561523	44111.281250
1330.507813	43791.203125
1329.453125	43860.285156
1328.399414	42696.093750
1327.344727	42004.242188
1326.290039	41428.839844
1325.235352	40555.039063
1324.180664	40546.515625
1323.125000	40587.742188
1322.070313	40150.488281
1321.014648	39985.750000
1319.958008	39390.167969
1318.902344	39242.222656
1317.845703	38935.773438
1316.789063	38324.218750
1315.732422	37807.542969
1314.675781	36948.136719
1313.618164	36545.464844
1312.560547	35114.562500
1311.502930	34348.437500
1310.445313	33464.480469
1309.386719	32387.154297
1308.329102	31574.839844
1307.270508	31079.326172
1306.210938	29908.730469
1305.152344	29309.902344
1304.092773	28444.628906
1303.033203	28056.367188
1301.973633	28005.628906
1300.914063	27395.906250
1299.853516	27232.132813
1298.792969	27134.439453
1297.732422	27032.072266
1296.671875	26710.574219
1295.611328	26598.912109
1294.549805	26475.515625
1293.488281	26446.375000
1292.426758	26567.947266
1291.364258	26406.960938
1290.302734	26123.650391
1289.240234	26273.445313
1288.177734	26270.248047
1287.114258	26165.906250
1286.051758	26075.716797
1284.988281	26046.695313
1283.924805	26172.832031
1282.861328	26082.691406
1281.796875	26154.718750
1280.732422	26128.046875
1279.667969	26176.542969
1278.603516	26511.500000
1277.539063	26759.447266
1276.473633	26847.677734
1275.408203	26886.583984
1274.342773	27192.945313
1273.277344	27377.195313
1272.210938	27329.187500
1271.145508	27217.886719
1270.079102	27434.828125
1269.011719	27260.267578
1267.945313	26853.796875
1266.877930	27176.095703
1265.810547	26847.105469
1264.743164	26593.187500
1263.674805	26290.208984
1262.607422	25748.597656
1261.539063	25717.396484
1260.470703	25225.267578
1259.401367	24791.828125
1258.333008	24788.908203
1257.263672	24484.347656
1256.194336	23953.148438
1255.125000	23583.445313
1254.054688	23365.789063
1252.985352	23094.490234
1251.915039	22846.662109
1250.843750	22795.105469
1249.773438	22750.572266
1248.702148	22381.583984
1247.630859	22295.146484
1246.559570	22141.074219
1245.488281	21954.408203
1244.416016	21849.451172
1243.343750	21700.232422
1242.271484	21849.488281
1241.199219	21387.994141
1240.125977	21308.873047
1239.053711	21441.802734
1237.980469	21469.853516
1236.906250	21472.271484
1235.833008	21383.880859
1234.758789	21493.396484
1233.684570	21277.029297
1232.610352	21579.648438
1231.536133	21451.753906
1230.460938	21435.556641
1229.385742	21424.013672
1228.310547	21503.146484
1227.235352	21842.580078
1226.159180	21324.337891
1225.083008	21408.082031
1224.006836	21312.923828
1222.930664	21751.964844
1221.853516	21691.599609
1220.777344	21721.794922
1219.700195	21751.976563
1218.622070	21898.164063
1217.544922	22399.244141
1216.466797	22264.572266
1215.388672	22468.527344
1214.310547	22544.876953
1213.232422	22762.589844
1212.153320	23209.638672
1211.074219	23290.410156
1209.995117	23544.880859
1208.916016	23389.310547
1207.835938	23618.177734
1206.755859	23539.048828
1205.675781	23628.912109
1204.595703	23552.125000
1203.514648	23551.714844
1202.434570	23088.695313
1201.353516	23171.632813
1200.271484	23316.957031
1199.190430	23023.023438
1198.108398	23170.626953
1197.026367	22793.666016
1195.944336	22728.722656
1194.862305	22365.873047
1193.779297	21980.083984
1192.696289	21843.787109
1191.613281	21605.990234
1190.530273	21289.835938
1189.446289	21153.767578
1188.362305	21013.142578
1187.278320	20930.230469
1186.194336	20685.957031
1185.109375	20444.093750
1184.024414	20282.994141
1182.939453	20336.244141
1181.854492	20244.341797
1180.768555	20094.898438
1179.683594	19959.333984
1178.597656	20019.509766
1177.510742	19927.748047
1176.424805	19819.914063
1175.337891	19783.447266
1174.250977	19749.294922
1173.164063	19742.750000
1172.077148	19793.687500
1170.989258	19571.056641
1169.901367	19486.412109
1168.813477	19638.464844
1167.724609	19512.490234
1166.636719	19774.710938
1165.547852	19846.230469
1164.458984	19858.029297
1163.369141	19952.451172
1162.280273	19899.966797
1161.190430	20191.638672
1160.100586	20476.302734
1159.010742	20343.470703
1157.919922	20774.712891
1156.829102	20488.287109
1155.738281	20625.960938
1154.647461	20761.283203
1153.555664	20520.857422
1152.464844	20646.978516
1151.373047	20933.330078
1150.280273	20763.984375
1149.188477	20915.144531
1148.095703	20718.412109
1147.002930	20485.158203
1145.910156	20210.832031
1144.817383	20503.757813
1143.723633	20284.414063
1142.629883	20147.453125
1141.536133	19980.841797
1140.441406	20081.628906
1139.347656	19768.900391
1138.252930	19629.878906
1137.158203	19796.888672
1136.062500	19735.537109
1134.967773	19503.029297
1133.872070	19350.488281
1132.776367	19592.693359
1131.679688	19435.632813
1130.583984	19714.199219
1129.487305	19716.771484
1128.390625	19552.943359
1127.292969	19655.820313
1126.196289	19751.814453
1125.098633	19572.134766
1124.000977	19510.957031
1122.903320	19634.240234
1121.804688	19502.501953
1120.706055	19575.658203
1119.607422	19473.568359
1118.508789	19487.546875
1117.409180	19483.320313
1116.310547	19194.843750
1115.210938	19638.560547
1114.110352	19293.345703
1113.010742	19502.775391
1111.910156	19185.001953
1110.809570	19114.962891
1109.708984	19178.943359
1108.607422	19188.400391
1107.506836	19245.523438
1106.405273	19007.578125
1105.303711	19121.439453
1104.201172	19128.625000
1103.098633	18840.957031
1101.996094	18746.156250
1100.893555	18714.875000
1099.791016	18726.669922
1098.687500	18645.548828
1097.583984	18845.396484
1096.480469	18728.039063
1095.376953	19036.480469
1094.272461	19061.769531
1093.167969	18885.582031
1092.063477	19297.888672
1090.958008	19400.031250
1089.853516	19343.773438
1088.748047	19264.923828
1087.642578	19669.998047
1086.536133	19803.611328
1085.430664	20079.558594
1084.324219	20466.107422
1083.217773	20542.974609
1082.110352	20807.279297
1081.003906	21157.281250
1079.896484	21385.208984
1078.789063	21549.833984
1077.680664	21858.816406
1076.573242	22036.800781
1075.464844	22007.173828
1074.356445	21927.943359
1073.247070	21666.109375
1072.138672	21643.339844
1071.029297	21426.753906
1069.919922	21250.818359
1068.809570	20991.605469
1067.700195	20626.646484
1066.589844	20622.134766
1065.479492	20496.052734
1064.368164	20147.189453
1063.257813	20246.296875
1062.146484	19787.396484
1061.035156	19652.601563
1059.922852	19477.384766
1058.811523	19380.935547
1057.699219	19230.578125
1056.586914	19131.976563
1055.473633	19240.126953
1054.361328	19062.937500
1053.248047	18661.234375
1052.134766	18547.117188
1051.021484	18772.033203
1049.907227	18577.138672
1048.792969	18716.675781
1047.678711	18748.462891
1046.564453	18524.539063
1045.449219	18832.175781
1044.333984	18749.572266
1043.218750	18969.603516
1042.103516	18584.470703
1040.987305	18670.007813
1039.871094	18580.785156
1038.754883	18605.816406
1037.638672	18563.664063
1036.521484	18400.648438
1035.404297	18857.636719
1034.287109	18784.126953
1033.169922	18862.765625
1032.051758	19024.121094
1030.933594	18867.884766
1029.815430	18635.703125
1028.697266	18895.341797
1027.578125	18817.439453
1026.458984	18976.384766
1025.339844	18938.703125
1024.220703	18934.531250
1023.100586	19075.480469
1021.980469	19118.150391
1020.860352	19149.644531
1019.740234	19259.210938
1018.619141	19014.054688
1017.498047	19096.837891
1016.376953	19016.818359
1015.255859	18843.205078
1014.133789	18845.734375
1013.011719	18968.582031
1011.889648	19060.187500
1010.767578	19060.433594
1009.644531	19045.091797
1008.521484	19125.482422
1007.398438	19143.515625
1006.274414	19112.583984
1005.151367	19417.601563
1004.027344	19184.210938
1002.902344	19171.076172
1001.778320	19222.419922
1000.653320	19407.105469
999.528320	19116.138672
998.403320	19114.130859
997.278320	19443.099609
996.152344	19285.560547
995.026367	19274.630859
993.900391	19563.382813
992.773438	19499.128906
991.646484	19820.982422
990.519531	19852.085938
989.392578	19798.894531
988.265625	20142.636719
987.137695	20195.812500
986.009766	20503.847656
984.881836	20264.416016
983.752930	20565.650391
982.624023	20494.640625
981.495117	20301.869141
980.366211	20166.744141
979.236328	20144.560547
978.106445	19865.683594
976.976563	19628.966797
975.846680	19624.609375
974.715820	19365.931641
973.585938	19516.400391
972.454102	19328.593750
971.323242	19282.308594
970.191406	19061.492188
969.060547	19150.035156
967.927734	18845.417969
966.795898	18905.261719
965.663086	19227.775391
964.530273	19057.968750
963.397461	19263.353516
962.264648	19464.234375
961.130859	19444.462891
959.997070	19863.513672
958.863281	19790.750000
957.729492	19755.486328
956.594727	19638.703125
955.459961	19442.656250
954.325195	19568.281250
953.189453	19319.482422
952.053711	19262.337891
950.917969	19194.210938
949.782227	19275.757813
948.646484	18985.435547
947.509766	18873.416016
946.373047	18935.183594
945.235352	18827.621094
944.098633	19199.316406
942.960938	18845.591797
941.823242	18812.822266
940.685547	19004.132813
939.546875	18980.123047
938.408203	19123.001953
937.269531	19228.496094
936.129883	19426.121094
934.991211	19391.060547
933.851563	19693.861328
932.711914	19709.199219
931.571289	19380.253906
930.431641	19858.236328
929.291016	19996.265625
928.149414	19978.646484
927.008789	20055.238281
925.867188	20059.513672
924.725586	19921.441406
923.583984	19627.982422
922.441406	19511.953125
921.299805	19234.031250
920.157227	19109.388672
919.013672	18706.994141
917.871094	18516.914063
916.727539	18396.882813
915.583984	18534.847656
914.439453	18270.621094
913.295898	18541.835938
912.151367	18249.324219
911.006836	18492.025391
909.861328	18193.101563
908.716797	18256.695313
907.571289	18256.964844
906.424805	18174.314453
905.279297	18194.232422
904.132813	18135.621094
902.986328	17839.351563
901.839844	18072.976563
900.692383	18167.000000
899.545898	17864.380859
898.398438	18150.125000
897.250000	18259.308594
896.102539	18244.316406
894.954102	18081.285156
893.805664	17979.269531
892.656250	18292.949219
891.507813	18201.806641
890.358398	18169.435547
889.208984	18180.572266
888.058594	18226.488281
886.908203	18118.046875
885.758789	17981.402344
884.607422	18105.546875
883.457031	17914.656250
882.305664	17767.285156
881.154297	17778.482422
880.002930	17837.431641
878.850586	17770.472656
877.698242	17781.658203
876.545898	17907.810547
875.393555	17574.109375
874.240234	17654.714844
873.086914	17561.851563
871.933594	17726.945313
870.780273	17846.460938
869.625977	17554.302734
868.471680	17855.736328
867.317383	17613.509766
866.162109	17713.451172
865.007813	17622.876953
863.852539	17549.650391
862.696289	17441.841797
861.541016	17745.044922
860.384766	17475.050781
859.228516	17622.443359
858.072266	17484.449219
856.915039	17646.896484
855.757813	17506.792969
854.600586	17654.039063
853.442383	17565.826172
852.285156	17611.511719
851.126953	18069.464844
849.968750	17789.142578
848.809570	17670.765625
847.650391	17614.996094
846.491211	17669.238281
845.332031	17484.123047
844.171875	17622.439453
843.012695	17340.433594
841.851563	17472.250000
840.691406	17735.412109
839.530273	17563.408203
838.369141	17652.015625
837.208008	17585.587891
836.046875	17650.474609
834.884766	17640.019531
833.722656	17599.449219
832.560547	17698.695313
831.397461	17563.515625
830.234375	17497.187500
829.071289	17460.978516
827.908203	17865.294922
826.744141	17700.115234
825.580078	17569.376953
824.416016	17567.537109
823.251953	17486.261719
822.086914	17621.806641
820.921875	17497.634766
819.756836	17506.533203
818.590820	17431.775391
817.425781	17580.070313
816.259766	17886.949219
815.092773	17563.509766
813.926758	17516.658203
812.759766	17746.207031
811.592773	17630.789063
810.424805	17661.044922
809.257813	17382.978516
808.089844	17520.300781
806.920898	17571.957031
805.752930	17764.798828
804.583984	17711.558594
803.415039	17574.935547
802.246094	17801.849609
801.076172	17731.533203
799.906250	17697.576172
798.736328	17853.794922
797.566406	17700.197266
796.395508	17503.957031
795.224609	17899.248047
794.053711	18213.240234
792.881836	18140.796875
791.710938	18175.070313
790.538086	18648.773438
789.366211	19056.142578
788.194336	19491.046875
787.021484	19712.570313
785.848633	19599.378906
784.674805	19648.179688
783.500977	19494.576172
782.327148	19181.302734
781.153320	19183.314453
779.979492	19276.863281
778.804688	18987.261719
777.629883	18953.138672
776.454102	18529.712891
775.279297	18470.181641
774.103516	18604.181641
772.927734	18517.021484
771.750977	18886.873047
770.575195	18704.060547
769.398438	18750.775391
768.220703	19094.828125
767.043945	18975.794922
765.866211	19551.046875
764.688477	19777.935547
763.510742	19983.498047
762.332031	20193.208984
761.153320	20852.494141
759.974609	21502.994141
758.794922	22388.529297
757.616211	23515.294922
756.436523	24931.869141
755.255859	27004.580078
754.076172	29775.341797
752.895508	32532.128906
751.714844	36096.425781
750.533203	39790.324219
749.352539	44108.941406
748.170898	47795.078125
746.988281	50950.703125
745.806641	52747.179688
744.624023	53868.367188
743.441406	54177.328125
742.258789	53782.398438
741.075195	52967.187500
739.891602	53003.632813
738.708008	52978.812500
737.523438	53623.316406
736.339844	54050.093750
735.155273	54280.398438
733.969727	54187.773438
732.785156	52589.023438
731.599609	49854.265625
730.414063	46625.257813
729.227539	42484.957031
728.041992	38540.445313
726.855469	34641.988281
725.667969	31046.556641
724.481445	28642.708984
723.293945	26467.367188
722.106445	24985.605469
720.918945	23611.857422
719.730469	22402.863281
718.541992	21817.107422
717.353516	20874.076172
716.164063	20518.130859
714.975586	20076.156250
713.786133	19699.537109
712.595703	19499.593750
711.406250	19287.134766
710.215820	19045.371094
709.025391	19229.974609
707.833984	18868.669922
706.642578	18797.167969
705.451172	18967.009766
704.259766	18918.591797
703.068359	18996.039063
701.875977	19130.064453
700.683594	19607.841797
699.490234	19993.175781
698.297852	20690.552734
697.104492	21261.910156
695.910156	21967.050781
694.716797	22682.333984
693.522461	23374.259766
692.328125	23364.691406
691.132813	23564.382813
689.938477	23140.541016
688.743164	23032.722656
687.547852	22483.728516
686.351563	22250.669922
685.155273	21493.087891
683.958984	21178.863281
682.762695	20768.679688
681.565430	20619.773438
680.368164	20232.875000
679.170898	20092.509766
677.973633	19902.111328
676.775391	19960.126953
675.577148	19853.296875
674.378906	19700.625000
673.179688	19721.107422
671.980469	19685.287109
670.781250	19453.548828
669.581055	19405.300781
668.381836	19065.394531
667.181641	19244.294922
665.980469	18960.804688
664.780273	19060.529297
663.579102	18820.921875
662.377930	18941.439453
661.175781	18687.404297
659.973633	18909.818359
658.771484	19275.617188
657.569336	19084.048828
656.367188	19042.228516
655.164063	19258.115234
653.960938	19681.666016
652.756836	19868.220703
651.552734	20135.679688
650.348633	20660.466797
649.144531	21035.554688
647.939453	21389.714844
646.735352	21473.990234
645.529297	21832.031250
644.324219	21849.798828
643.118164	21861.337891
641.912109	21655.216797
640.706055	21337.283203
639.499023	21179.029297
638.292969	20855.134766
637.084961	20601.798828
635.877930	20454.173828
634.669922	19942.296875
633.461914	19914.921875
632.253906	19724.103516
631.044922	19351.339844
629.836914	19398.566406
628.626953	19150.103516
627.417969	19222.156250
626.208008	19172.244141
624.998047	19240.125000
623.788086	19109.667969
622.577148	18987.529297
621.366211	18983.134766
620.155273	18770.253906
618.944336	18662.720703
617.732422	18559.363281
616.520508	18625.205078
615.308594	18328.041016
614.095703	18222.767578
612.882813	18218.548828
611.669922	18115.406250
610.457031	17917.531250
609.243164	17872.183594
608.029297	17839.212891
606.815430	17882.439453
605.600586	17876.240234
604.385742	17835.054688
603.170898	17789.773438
601.955078	17777.423828
600.740234	17863.796875
599.524414	17985.083984
598.307617	17898.691406
597.091797	17873.992188
595.875000	18021.900391
594.658203	18071.134766
593.440430	18042.302734
592.222656	17916.978516
591.004883	17980.568359
589.787109	17793.744141
588.568359	17808.087891
587.349609	17769.085938
586.130859	17445.025391
584.912109	17654.226563
583.692383	17389.791016
582.472656	17713.675781
581.251953	17644.001953
580.032227	17941.044922
578.811523	17885.683594
577.589844	18069.914063
576.369141	18428.062500
575.147461	18491.328125
573.925781	18802.148438
572.703125	19104.642578
571.481445	19378.359375
570.258789	19631.501953
569.035156	20225.917969
567.812500	20435.824219
566.588867	20943.955078
565.365234	21347.664063
564.140625	21540.822266
562.916992	21433.730469
561.692383	21381.804688
560.466797	21538.080078
559.242188	21231.093750
558.016602	20973.207031
556.791016	20676.689453
555.564453	20380.308594
554.337891	19660.039063
553.111328	19245.818359
551.884766	18913.292969
550.657227	18265.162109
549.429688	18210.005859
548.202148	18038.810547
546.974609	17792.371094
545.746094	17843.193359
544.517578	17834.982422
543.288086	18015.966797
542.058594	17810.433594
540.829102	17867.302734
539.599609	17611.074219
538.370117	17867.138672
537.139648	17576.484375
535.909180	17452.544922
534.677734	17720.650391
533.446289	17606.886719
532.214844	17460.695313
530.983398	17580.447266
529.750977	17379.539063
528.519531	17501.283203
527.286133	17330.908203
526.053711	17410.019531
524.820313	17150.544922
523.586914	17351.267578
522.353516	17197.291016
521.119141	17138.601563
519.884766	17472.859375
518.650391	17102.294922
517.415039	17072.005859
516.179688	16981.011719
514.944336	17149.066406
513.708984	17153.175781
