#Wave		#Intensity
1585.210938	4945.338867
1584.209961	5180.117676
1583.208984	5024.222168
1582.208008	5123.045898
1581.206055	5099.519531
1580.204102	5063.524902
1579.202148	4970.158691
1578.200195	5068.911133
1577.198242	5022.968750
1576.195313	5079.278809
1575.192383	4988.479004
1574.189453	5069.697266
1573.186523	4988.904785
1572.182617	5007.802734
1571.178711	4984.347168
1570.174805	5043.084961
1569.170898	4972.323242
1568.166992	5095.762695
1567.162109	4995.152832
1566.158203	5026.466797
1565.153320	4878.643555
1564.147461	4984.587891
1563.142578	4916.412109
1562.136719	5064.571289
1561.130859	4969.063477
1560.125000	5062.474121
1559.119141	4996.822754
1558.113281	5055.409668
1557.106445	5158.678711
1556.099609	5212.241211
1555.092773	5082.062012
1554.084961	5197.671875
1553.078125	5099.811035
1552.070313	5131.010254
1551.062500	5134.909180
1550.054688	5168.567383
1549.045898	5147.660645
1548.038086	5104.450195
1547.029297	5041.428711
1546.020508	5003.213867
1545.011719	5051.729492
1544.001953	5020.958984
1542.992188	4972.865234
1541.982422	5122.872559
1540.972656	5077.252930
1539.962891	5056.401855
1538.952148	4936.580078
1537.942383	5079.047852
1536.931641	5040.894531
1535.919922	5069.526367
1534.909180	4979.469238
1533.897461	5042.708008
1532.886719	5068.849609
1531.874023	5018.382324
1530.862305	5106.276855
1529.850586	5073.111328
1528.837891	5069.591309
1527.825195	4964.850098
1526.812500	5000.847168
1525.799805	5266.336914
1524.786133	5080.197754
1523.772461	5049.544434
1522.758789	5018.903320
1521.745117	5170.742676
1520.731445	5090.783203
1519.716797	5025.645020
1518.702148	5081.282227
1517.687500	4981.680176
1516.672852	4938.773926
1515.657227	5186.485840
1514.642578	5143.554199
1513.626953	5031.712402
1512.610352	4996.213867
1511.594727	5103.448730
1510.579102	4935.100098
1509.562500	5175.125000
1508.545898	5181.430176
1507.529297	4927.117188
1506.511719	5004.756836
1505.494141	5087.279297
1504.477539	5140.281738
1503.458984	5023.756836
1502.441406	5049.732910
1501.423828	5063.420410
1500.405273	5123.748535
1499.386719	5058.868164
1498.368164	5052.912109
1497.348633	5199.078125
1496.330078	5190.641602
1495.310547	5140.515625
1494.291016	5163.970703
1493.271484	4961.875977
1492.250977	5095.653320
1491.231445	5045.587402
1490.210938	5245.441406
1489.190430	5072.890137
1488.168945	5182.042969
1487.148438	5080.581543
1486.126953	5030.568848
1485.105469	4997.709473
1484.083984	5087.210449
1483.061523	5159.549316
1482.040039	5212.290039
1481.017578	5108.501465
1479.995117	4987.641113
1478.971680	5103.938965
1477.949219	5168.866211
1476.925781	5202.002441
1475.902344	5232.681152
1474.878906	5282.886230
1473.855469	5242.720703
1472.831055	5295.343262
1471.806641	5452.901855
1470.782227	5359.036621
1469.757813	5328.646973
1468.733398	5412.918945
1467.708008	5477.644531
1466.682617	5476.508301
1465.657227	5577.761230
1464.631836	5593.665039
1463.605469	5604.688477
1462.579102	5520.690918
1461.552734	5677.872559
1460.526367	5559.799805
1459.500000	5714.473145
1458.472656	5623.218262
1457.445313	5814.320313
1456.417969	5735.248047
1455.390625	5502.943848
1454.362305	5667.195801
1453.334961	5758.426270
1452.306641	5591.904785
1451.277344	5583.451660
1450.249023	5628.466797
1449.219727	5469.364258
1448.191406	5543.535156
1447.162109	5498.666016
1446.131836	5465.957031
1445.102539	5520.659180
1444.072266	5436.986816
1443.041992	5496.525391
1442.011719	5536.628906
1440.981445	5533.052734
1439.950195	5514.926758
1438.918945	5603.494629
1437.887695	5534.452148
1436.856445	5540.573242
1435.825195	5360.104980
1434.792969	5458.321289
1433.760742	5481.408203
1432.728516	5354.341309
1431.696289	5452.496094
1430.663086	5303.701172
1429.629883	5348.581543
1428.596680	5352.308594
1427.563477	5278.620117
1426.530273	5270.266113
1425.496094	5264.333496
1424.461914	5214.885254
1423.427734	5167.874512
1422.393555	5096.716309
1421.358398	5199.550293
1420.323242	5258.859375
1419.288086	5112.855957
1418.252930	5232.523926
1417.217773	5195.222656
1416.181641	5198.968262
1415.145508	5219.604004
1414.109375	5216.104492
1413.073242	5265.673340
1412.036133	5160.876953
1411.000000	5154.979492
1409.962891	5158.727051
1408.924805	5242.006836
1407.887695	5293.926270
1406.849609	5285.596191
1405.812500	5298.946289
1404.773438	5333.963867
1403.735352	5383.412109
1402.697266	5423.210938
1401.658203	5400.420898
1400.619141	5416.137695
1399.580078	5467.932129
1398.540039	5397.043945
1397.500977	5576.263184
1396.460938	5317.862305
1395.420898	5420.107910
1394.380859	5289.209961
1393.339844	5489.924316
1392.298828	5289.405762
1391.257813	5439.602051
1390.216797	5558.521484
1389.175781	5360.513672
1388.133789	5440.997559
1387.091797	5358.275879
1386.049805	5359.556641
1385.007813	5418.402344
1383.964844	5486.815430
1382.922852	5624.729492
1381.879883	5527.671387
1380.835938	5552.879395
1379.792969	5604.433594
1378.749023	5711.063965
1377.706055	5554.190430
1376.661133	5569.791992
1375.617188	5549.475586
1374.573242	5567.464355
1373.528320	5697.919922
1372.483398	5591.455566
1371.438477	5788.829102
1370.392578	5524.544922
1369.347656	5664.463379
1368.301758	5711.090332
1367.255859	5688.385254
1366.208984	5558.158203
1365.163086	5626.278320
1364.116211	5584.495605
1363.069336	5700.342773
1362.022461	5520.081543
1360.974609	5504.604004
1359.927734	5586.981934
1358.879883	5547.634766
1357.832031	5622.812012
1356.783203	5564.392578
1355.735352	5494.074707
1354.686523	5585.903320
1353.637695	5520.376465
1352.588867	5659.821777
1351.539063	5620.514648
1350.490234	5628.865234
1349.440430	5703.896484
1348.390625	5728.892578
1347.339844	5820.534668
1346.290039	5831.214844
1345.239258	5906.139160
1344.188477	5988.168945
1343.137695	6067.785156
1342.085938	6087.915039
1341.034180	6055.729492
1339.982422	5956.998047
1338.930664	6117.356934
1337.878906	6108.944824
1336.826172	6200.311035
1335.773438	5997.125977
1334.720703	6152.590820
1333.667969	6267.629883
1332.614258	6014.711914
1331.561523	6127.357910
1330.507813	6090.481445
1329.453125	6117.667480
1328.399414	5876.849609
1327.344727	5813.965820
1326.290039	5957.351563
1325.235352	5982.170898
1324.180664	5860.062988
1323.125000	6034.145508
1322.070313	5836.281250
1321.014648	5844.526855
1319.958008	5864.605957
1318.902344	5756.851563
1317.845703	5729.607910
1316.789063	5695.276367
1315.732422	5604.184082
1314.675781	5752.008301
1313.618164	5701.140137
1312.560547	5692.847656
1311.502930	5741.285156
1310.445313	5671.545410
1309.386719	5630.186035
1308.329102	5629.000000
1307.270508	5712.833496
1306.210938	5577.044434
1305.152344	5653.770508
1304.092773	5647.858887
1303.033203	5507.448242
1301.973633	5522.801758
1300.914063	5559.375977
1299.853516	5553.487305
1298.792969	5502.805176
1297.732422	5551.145020
1296.671875	5483.986816
1295.611328	5447.487305
1294.549805	5564.122070
1293.488281	5539.395996
1292.426758	5542.936035
1291.364258	5459.369141
1290.302734	5441.740723
1289.240234	5511.187500
1288.177734	5477.085449
1287.114258	5391.249512
1286.051758	5390.110352
1284.988281	5426.590820
1283.924805	5418.392090
1282.861328	5508.905273
1281.796875	5378.506348
1280.732422	5663.974121
1279.667969	5505.412109
1278.603516	5511.292480
1277.539063	5547.690430
1276.473633	5473.752441
1275.408203	5639.212891
1274.342773	5663.828125
1273.277344	5625.097656
1272.210938	5637.978516
1271.145508	5627.406250
1270.079102	5595.739258
1269.011719	5688.304688
1267.945313	5476.206055
1266.877930	5458.646973
1265.810547	5420.014160
1264.743164	5339.245117
1263.674805	5408.352051
1262.607422	5145.038086
1261.539063	5307.767578
1260.470703	5231.768555
1259.401367	5352.302734
1258.333008	5238.905273
1257.263672	5289.236328
1256.194336	5297.465820
1255.125000	5186.487793
1254.054688	5218.102539
1252.985352	5245.030762
1251.915039	5218.223633
1250.843750	5076.996094
1249.773438	5190.324707
1248.702148	5217.233887
1247.630859	5141.442871
1246.559570	5189.351074
1245.488281	5230.239258
1244.416016	4993.560547
1243.343750	5235.011719
1242.271484	5138.313477
1241.199219	5319.027832
1240.125977	5138.458496
1239.053711	5307.446289
1237.980469	5143.261230
1236.906250	5256.281738
1235.833008	5203.938965
1234.758789	5146.961914
1233.684570	5152.848633
1232.610352	5128.482422
1231.536133	5148.328125
1230.460938	5147.231445
1229.385742	5194.968750
1228.310547	5196.187012
1227.235352	5169.511230
1226.159180	5012.706543
1225.083008	5197.512695
1224.006836	5149.945801
1222.930664	5141.880371
1221.853516	5194.188477
1220.777344	5183.794922
1219.700195	5185.010254
1218.622070	5139.814941
1217.544922	5301.115723
1216.466797	5232.719727
1215.388672	5166.671387
1214.310547	5054.281250
1213.232422	5134.331543
1212.153320	5186.537109
1211.074219	5027.874023
1209.995117	5182.004883
1208.916016	5215.637695
1207.835938	5290.935059
1206.755859	5148.587891
1205.675781	5247.011719
1204.595703	5083.908203
1203.514648	5126.777832
1202.434570	5174.254883
1201.353516	5119.959473
1200.271484	5109.616211
1199.190430	5094.653320
1198.108398	5102.807129
1197.026367	5240.348145
1195.944336	5160.683594
1194.862305	5122.625488
1193.779297	4999.147461
1192.696289	5108.888184
1191.613281	5130.874512
1190.530273	5060.547363
1189.446289	5073.305176
1188.362305	5102.203125
1187.278320	5001.946777
1186.194336	5046.986328
1185.109375	5195.736328
1184.024414	5113.959961
1182.939453	5140.512207
1181.854492	5054.174805
1180.768555	5018.542969
1179.683594	5192.466309
1178.597656	4951.927734
1177.510742	4872.607910
1176.424805	5039.546387
1175.337891	4918.829102
1174.250977	5131.688477
1173.164063	5112.187988
1172.077148	4989.232422
1170.989258	5031.834961
1169.901367	5164.048828
1168.813477	5059.541504
1167.724609	5060.750488
1166.636719	5130.859863
1165.547852	5012.648438
1164.458984	5068.962891
1163.369141	5134.433594
1162.280273	5041.539063
1161.190430	5244.641113
1160.100586	5149.467773
1159.010742	5111.666504
1157.919922	5007.391113
1156.829102	5054.449707
1155.738281	5021.275879
1154.647461	5100.388184
1153.555664	5124.487305
1152.464844	5114.221191
1151.373047	5108.538574
1150.280273	5125.750977
1149.188477	4957.562012
1148.095703	5105.232910
1147.002930	5053.798828
1145.910156	5034.409668
1144.817383	5090.493652
1143.723633	5139.693848
1142.629883	5019.719727
1141.536133	5080.339844
1140.441406	5129.509277
1139.347656	5011.897949
1138.252930	5223.214844
1137.158203	5105.633789
1136.062500	5081.700684
1134.967773	4950.505859
1133.872070	4935.743652
1132.776367	4916.424805
1131.679688	5013.439941
1130.583984	5114.973633
1129.487305	5132.105957
1128.390625	5156.068848
1127.292969	5029.610840
1126.196289	5247.251953
1125.098633	5004.652832
1124.000977	5078.725098
1122.903320	5093.562988
1121.804688	5128.882813
1120.706055	5141.426758
1119.607422	5031.089355
1118.508789	4975.398438
1117.409180	5119.887207
1116.310547	5157.434570
1115.210938	5106.298340
1114.110352	5016.542969
1113.010742	5035.906738
1111.910156	4943.932617
1110.809570	4981.475098
1109.708984	4980.393555
1108.607422	5124.626953
1107.506836	5062.222168
1106.405273	4913.600586
1105.303711	5030.524414
1104.201172	5018.087891
1103.098633	4969.367676
1101.996094	4977.357422
1100.893555	5021.616699
1099.791016	4981.992188
1098.687500	4980.908203
1097.583984	5018.340332
1096.480469	5085.201660
1095.376953	4848.573242
1094.272461	5001.479004
1093.167969	5054.717285
1092.063477	5001.563965
1090.958008	4894.129395
1089.853516	4854.606445
1088.748047	4959.847168
1087.642578	5083.130859
1086.536133	4898.907227
1085.430664	4954.343750
1084.324219	4980.379883
1083.217773	5013.181641
1082.110352	5018.864258
1081.003906	5211.976074
1079.896484	4860.890625
1078.789063	5024.607910
1077.680664	5032.538086
1076.573242	5051.745117
1075.464844	4976.202148
1074.356445	4936.775391
1073.247070	4924.422852
1072.138672	4894.041504
1071.029297	4965.092773
1069.919922	4954.994141
1068.809570	4942.646973
1067.700195	4975.350586
1066.589844	4976.514160
1065.479492	5072.232422
1064.368164	5073.373535
1063.257813	5146.524414
1062.146484	4974.409668
1061.035156	4964.323242
1059.922852	5041.946289
1058.811523	4953.155762
1057.699219	4956.566406
1056.586914	4930.759277
1055.473633	4913.950684
1054.361328	4973.526367
1053.248047	4965.698730
1052.134766	5070.144043
1051.021484	4900.663086
1049.907227	5016.298828
1048.792969	4979.295410
1047.678711	5000.637207
1046.564453	5008.511719
1045.449219	4971.533203
1044.333984	4956.989746
1043.218750	4924.520508
1042.103516	5015.319336
1040.987305	5029.901367
1039.871094	4914.556152
1038.754883	4915.715820
1037.638672	4905.679688
1036.521484	4918.032227
1035.404297	4907.999023
1034.287109	4942.720215
1033.169922	4957.292480
1032.051758	4837.664551
1030.933594	4979.708008
1029.815430	4929.429688
1028.697266	4872.467773
1027.578125	4971.951660
1026.458984	4917.238770
1025.339844	4925.090332
1024.220703	4912.839844
1023.100586	4898.361816
1021.980469	5006.656738
1020.860352	5072.501953
1019.740234	5051.303711
1018.619141	4914.120605
1017.498047	4939.798828
1016.376953	4816.077637
1015.255859	5026.786621
1014.133789	4927.615723
1013.011719	4886.420898
1011.889648	4952.173340
1010.767578	4888.718262
1009.644531	4978.934570
1008.521484	4995.644531
1007.398438	4916.640625
1006.274414	5031.267090
1005.151367	4999.008789
1004.027344	4962.315918
1002.902344	4958.995117
1001.778320	4931.219727
1000.653320	4945.688965
999.528320	4926.816895
998.403320	4950.166992
997.278320	4971.284668
996.152344	4959.080566
995.026367	4977.965820
993.900391	4865.872559
992.773438	4911.401367
991.646484	4916.970215
990.519531	4767.251465
989.392578	4976.892578
988.265625	4816.138672
987.137695	4881.578125
986.009766	4949.204590
984.881836	4815.153320
983.752930	4860.609375
982.624023	4914.904297
981.495117	4913.813965
980.366211	4895.012695
979.236328	4862.937988
978.106445	4793.257324
976.976563	4907.241699
975.846680	4828.733398
974.715820	4816.603516
973.585938	4979.146973
972.454102	4843.200684
971.323242	4789.084473
970.191406	4863.144043
969.060547	4877.526367
967.927734	4836.688477
966.795898	4864.317871
965.663086	4916.217773
964.530273	4862.154785
963.397461	4891.965332
962.264648	4921.761719
961.130859	4775.098145
959.997070	4871.059570
958.863281	5015.479004
957.729492	5054.036621
956.594727	5030.875000
955.459961	4910.785156
954.325195	5028.634277
953.189453	4908.597656
952.053711	4988.965332
950.917969	4882.197266
949.782227	4975.737793
948.646484	4919.624023
947.509766	4929.525391
946.373047	4943.820313
945.235352	4949.313477
944.098633	4862.478516
942.960938	4850.404785
941.823242	4891.069824
940.685547	4896.568359
939.546875	4871.316406
938.408203	4760.439453
937.269531	4895.483887
936.129883	4896.585449
934.991211	4926.211426
933.851563	4894.397461
932.711914	4956.909668
931.571289	4883.437988
930.431641	4910.846680
929.291016	4872.487305
928.149414	4994.113770
927.008789	5010.523438
925.867188	4864.837402
924.725586	4868.128418
923.583984	4875.796387
922.441406	4929.427734
921.299805	5002.730469
920.157227	4852.831055
919.013672	4847.369141
917.871094	4815.666016
916.727539	4886.740234
915.583984	4796.020508
914.439453	4683.485840
913.295898	4796.055664
912.151367	4829.932129
911.006836	4763.329102
909.861328	4862.702637
908.716797	4759.009277
907.571289	4757.941895
906.424805	4809.243164
905.279297	4814.708496
904.132813	4741.652344
902.986328	4729.685059
901.839844	4844.167969
900.692383	4908.468262
899.545898	4815.842773
898.398438	4823.475586
897.250000	4855.063965
896.102539	4919.302246
894.954102	4935.613770
893.805664	4816.963867
892.656250	4892.047363
891.507813	4862.663086
890.358398	4909.423828
889.208984	4856.126465
888.058594	4805.026855
886.908203	4740.907227
885.758789	4844.155762
884.607422	4777.882813
883.457031	4941.898926
882.305664	4790.934082
881.154297	4750.771973
880.002930	4725.822754
878.850586	4763.823730
877.698242	4764.920410
876.545898	4752.999512
875.393555	4825.668945
874.240234	4811.570801
873.086914	4706.428711
871.933594	4724.873535
870.780273	4725.975098
869.625977	4729.241699
868.471680	4663.197266
867.317383	4729.272949
866.162109	4782.329102
865.007813	4815.880371
863.852539	4741.218750
862.696289	4785.581055
861.541016	4810.456055
860.384766	4785.582031
859.228516	4793.148926
858.072266	4688.313477
856.915039	4708.864258
855.757813	4805.023926
854.600586	4736.976563
853.442383	4794.213379
852.285156	4732.675781
851.126953	4848.168457
849.968750	4756.432129
848.809570	4807.138672
847.650391	4816.836426
846.491211	4705.758301
845.332031	4747.815918
844.171875	4662.670898
843.012695	4857.734863
841.851563	4634.703613
840.691406	4685.354492
839.530273	4774.748535
838.369141	4614.329102
837.208008	4701.545410
836.046875	4592.868164
834.884766	4645.621094
833.722656	4526.248535
832.560547	4535.976074
831.397461	4709.120605
830.234375	4624.210938
829.071289	4593.071289
827.908203	4652.196777
826.744141	4698.404297
825.580078	4589.945801
824.416016	4601.788086
823.251953	4639.387207
822.086914	4582.528320
820.921875	4682.344727
819.756836	4541.830078
818.590820	4587.986816
817.425781	4782.087891
816.259766	4568.750977
815.092773	4602.007813
813.926758	4742.398438
812.759766	4542.069336
811.592773	4515.332520
810.424805	4584.976074
809.257813	4538.972168
808.089844	4574.328613
806.920898	4481.266113
805.752930	4561.550293
804.583984	4607.571777
803.415039	4662.126953
802.246094	4539.193848
801.076172	4508.233887
799.906250	4584.144531
798.736328	4559.597656
797.566406	4558.559570
796.395508	4542.571289
795.224609	4509.508789
794.053711	4446.575195
792.881836	4562.943848
791.710938	4632.316895
790.538086	4443.536133
789.366211	4421.195801
788.194336	4558.785156
787.021484	4572.668457
785.848633	4646.220703
784.674805	4549.274902
783.500977	4516.282227
782.327148	4664.340820
781.153320	4631.335938
779.979492	4566.413574
778.804688	4554.729492
777.629883	4562.201172
776.454102	4529.248535
775.279297	4477.168457
774.103516	4595.226563
772.927734	4553.784180
771.750977	4448.596191
770.575195	4464.580078
769.398438	4452.937500
768.220703	4543.252441
767.043945	4537.966797
765.866211	4485.977051
764.688477	4514.667480
763.510742	4428.752441
762.332031	4548.669922
761.153320	4526.418945
759.974609	4595.363770
758.794922	4481.946289
757.616211	4565.706543
756.436523	4509.563965
755.255859	4527.600098
754.076172	4571.045898
752.895508	4589.058594
751.714844	4520.257324
750.533203	4565.790527
749.352539	4592.256348
748.170898	4749.887207
746.988281	4740.338379
745.806641	4760.400391
744.624023	4907.311523
743.441406	5092.203613
742.258789	5207.270508
741.075195	5358.203125
739.891602	5777.336914
738.708008	6014.656250
737.523438	6247.643066
736.339844	6398.196777
735.155273	6578.227051
733.969727	6557.729004
732.785156	6697.559570
731.599609	6383.893555
730.414063	6207.423340
729.227539	6066.870117
728.041992	5888.445313
726.855469	5608.963867
725.667969	5382.273926
724.481445	5208.339844
723.293945	5072.385742
722.106445	4892.286621
720.918945	4964.825195
719.730469	4810.082031
718.541992	4691.172363
717.353516	4715.333008
716.164063	4527.109375
714.975586	4544.989258
713.786133	4508.215820
712.595703	4481.964844
711.406250	4447.322266
710.215820	4391.692871
709.025391	4388.583496
707.833984	4391.772949
706.642578	4439.036621
705.451172	4412.835449
704.259766	4392.939941
703.068359	4415.000977
701.875977	4321.721191
700.683594	4310.245117
699.490234	4395.187012
698.297852	4402.557617
697.104492	4332.410156
695.910156	4318.846191
694.716797	4368.108398
693.522461	4266.613281
692.328125	4315.864258
691.132813	4388.110352
689.938477	4338.982422
688.743164	4325.433594
687.547852	4487.544434
686.351563	4398.704102
685.155273	4414.412109
683.958984	4444.740234
682.762695	4322.542969
681.565430	4442.692383
680.368164	4427.050781
679.170898	4378.012207
677.973633	4404.137695
676.775391	4373.907715
675.577148	4304.051270
674.378906	4380.234375
673.179688	4329.176270
671.980469	4376.129883
670.781250	4416.808105
669.581055	4524.152344
668.381836	4491.857422
667.181641	4532.480469
665.980469	4421.064453
664.780273	4626.160156
663.579102	4514.773438
662.377930	4449.219727
661.175781	4439.871094
659.973633	4549.089355
658.771484	4541.800781
657.569336	4613.520508
656.367188	4566.726074
655.164063	4607.234375
653.960938	4564.617188
652.756836	4590.566406
651.552734	4608.196777
650.348633	4534.464844
649.144531	4720.233887
647.939453	4605.004395
646.735352	4757.474121
645.529297	4687.923340
644.324219	4699.282715
643.118164	4677.463379
641.912109	4616.269531
640.706055	4555.103516
639.499023	4508.468750
638.292969	4592.355469
637.084961	4578.868164
635.877930	4625.430176
634.669922	4591.241211
633.461914	4492.912109
632.253906	4510.494629
631.044922	4546.685547
629.836914	4566.314941
628.626953	4484.622559
627.417969	4510.458008
626.208008	4550.747070
624.998047	4419.526367
623.788086	4507.328125
622.577148	4403.024902
621.366211	4385.488281
620.155273	4332.867188
618.944336	4463.946289
617.732422	4394.824219
616.520508	4439.189453
615.308594	4332.982422
614.095703	4391.773438
612.882813	4370.143066
611.669922	4288.755859
610.457031	4263.037598
609.243164	4259.990723
608.029297	4298.134277
606.815430	4212.719727
605.600586	4217.919922
604.385742	4243.697754
603.170898	4384.687500
601.955078	4225.275391
600.740234	4277.768555
599.524414	4309.676270
598.307617	4179.170898
597.091797	4322.065918
595.875000	4277.915527
594.658203	4262.544922
593.440430	4142.438965
592.222656	4268.782715
591.004883	4169.258789
589.787109	4254.490234
588.568359	4208.363281
587.349609	4104.818848
586.130859	4278.194824
584.912109	4342.816895
583.692383	4345.910156
582.472656	4283.418457
581.251953	4253.739258
580.032227	4289.626465
578.811523	4237.430664
577.589844	4160.687500
576.369141	4233.418457
575.147461	4238.576660
573.925781	4313.301758
572.703125	4171.149414
571.481445	4274.487793
570.258789	4128.320313
569.035156	4311.346191
567.812500	4187.719238
566.588867	4239.874023
565.365234	4338.989258
564.140625	4305.305176
562.916992	4243.049805
561.692383	4258.396484
560.466797	4271.695313
559.242188	4291.108887
558.016602	4245.233398
556.791016	4217.734863
555.564453	4316.669434
554.337891	4254.510742
553.111328	4241.294922
551.884766	4213.821289
550.657227	4367.667480
549.429688	4252.599609
548.202148	4221.069336
546.974609	4228.232910
545.746094	4284.239258
544.517578	4291.383789
543.288086	4357.520508
542.058594	4382.949219
540.829102	4359.564941
539.599609	4321.960449
538.370117	4347.378906
537.139648	4198.036621
535.909180	4312.856934
534.677734	4376.848633
533.446289	4390.046387
532.214844	4370.756348
530.983398	4262.172852
529.750977	4267.270508
528.519531	4270.337402
527.286133	4364.670898
526.053711	4262.271484
524.820313	4364.671875
523.586914	4408.247559
522.353516	4417.355469
521.119141	4535.854492
519.884766	4388.974609
518.650391	4341.382813
517.415039	4376.814453
516.179688	4333.295410
514.944336	4231.114746
513.708984	4260.477539
