#Wave		#Intensity
1585.210938	11586.579102
1584.209961	11536.625977
1583.208984	11439.344727
1582.208008	11646.690430
1581.206055	11589.363281
1580.204102	11599.440430
1579.202148	11831.573242
1578.200195	11799.187500
1577.198242	11652.089844
1576.195313	11627.234375
1575.192383	11794.349609
1574.189453	11864.188477
1573.186523	11699.753906
1572.182617	11767.090820
1571.178711	11981.364258
1570.174805	11682.524414
1569.170898	11839.458008
1568.166992	11543.258789
1567.162109	11595.623047
1566.158203	11553.408203
1565.153320	11506.235352
1564.147461	11546.136719
1563.142578	11364.695313
1562.136719	11352.397461
1561.130859	11504.164063
1560.125000	11648.413086
1559.119141	11372.678711
1558.113281	11551.672852
1557.106445	11405.225586
1556.099609	11320.917969
1555.092773	11648.771484
1554.084961	11383.249023
1553.078125	11517.383789
1552.070313	11448.007813
1551.062500	11304.241211
1550.054688	11336.623047
1549.045898	11195.417969
1548.038086	11312.095703
1547.029297	11146.167969
1546.020508	11151.293945
1545.011719	11136.597656
1544.001953	11005.486328
1542.992188	11146.845703
1541.982422	10983.597656
1540.972656	10674.361328
1539.962891	10761.250977
1538.952148	10716.957031
1537.942383	10576.196289
1536.931641	10776.829102
1535.919922	10581.708984
1534.909180	10601.769531
1533.897461	10527.888672
1532.886719	10525.708984
1531.874023	10563.064453
1530.862305	10511.469727
1529.850586	10741.460938
1528.837891	10796.032227
1527.825195	10712.325195
1526.812500	10564.474609
1525.799805	10673.339844
1524.786133	10883.318359
1523.772461	10757.724609
1522.758789	10831.952148
1521.745117	10733.543945
1520.731445	10829.932617
1519.716797	11000.222656
1518.702148	11200.013672
1517.687500	10855.234375
1516.672852	11195.375000
1515.657227	11097.010742
1514.642578	11129.183594
1513.626953	11055.489258
1512.610352	11301.780273
1511.594727	11277.292969
1510.579102	11238.054688
1509.562500	11398.064453
1508.545898	11373.571289
1507.529297	11233.532227
1506.511719	11073.884766
1505.494141	11290.319336
1504.477539	11238.837891
1503.458984	11170.181641
1502.441406	11202.252930
1501.423828	11121.353516
1500.405273	11062.583008
1499.386719	11210.019531
1498.368164	11124.258789
1497.348633	11023.812500
1496.330078	10967.561523
1495.310547	11235.067383
1494.291016	11095.425781
1493.271484	11208.348633
1492.250977	11009.945313
1491.231445	11166.946289
1490.210938	11132.782227
1489.190430	11039.843750
1488.168945	11299.596680
1487.148438	10915.292969
1486.126953	11179.858398
1485.105469	11135.934570
1484.083984	11544.713867
1483.061523	11393.086914
1482.040039	11508.129883
1481.017578	11813.868164
1479.995117	11987.454102
1478.971680	11997.190430
1477.949219	12334.406250
1476.925781	12322.075195
1475.902344	12490.522461
1474.878906	12492.816406
1473.855469	12636.739258
1472.831055	12990.558594
1471.806641	12948.810547
1470.782227	12853.391602
1469.757813	13055.672852
1468.733398	13143.220703
1467.708008	13096.594727
1466.682617	13388.916992
1465.657227	13391.014648
1464.631836	13305.367188
1463.605469	13821.649414
1462.579102	13721.328125
1461.552734	14122.825195
1460.526367	14107.717773
1459.500000	14085.311523
1458.472656	14004.491211
1457.445313	14186.551758
1456.417969	14093.575195
1455.390625	13917.922852
1454.362305	13873.684570
1453.334961	13625.195313
1452.306641	13408.415039
1451.277344	13466.400391
1450.249023	13327.509766
1449.219727	13261.568359
1448.191406	12692.799805
1447.162109	12721.737305
1446.131836	12906.069336
1445.102539	12689.748047
1444.072266	12553.614258
1443.041992	12524.312500
1442.011719	12589.644531
1440.981445	12329.902344
1439.950195	12443.750000
1438.918945	12421.766602
1437.887695	12390.094727
1436.856445	12249.369141
1435.825195	12026.311523
1434.792969	12222.472656
1433.760742	12149.688477
1432.728516	12164.114258
1431.696289	12101.054688
1430.663086	11846.788086
1429.629883	11841.904297
1428.596680	11853.959961
1427.563477	11774.081055
1426.530273	11706.328125
1425.496094	11636.184570
1424.461914	11430.680664
1423.427734	11754.618164
1422.393555	11573.339844
1421.358398	11336.565430
1420.323242	11384.934570
1419.288086	11544.379883
1418.252930	11595.098633
1417.217773	11447.836914
1416.181641	11730.262695
1415.145508	11853.303711
1414.109375	11809.821289
1413.073242	11978.623047
1412.036133	12089.474609
1411.000000	12113.478516
1409.962891	12446.032227
1408.924805	12797.726563
1407.887695	12843.252930
1406.849609	13356.127930
1405.812500	13757.991211
1404.773438	14190.992188
1403.735352	14679.187500
1402.697266	14996.272461
1401.658203	15156.795898
1400.619141	15298.002930
1399.580078	15299.625000
1398.540039	15250.738281
1397.500977	15218.702148
1396.460938	15345.349609
1395.420898	14741.250977
1394.380859	14517.091797
1393.339844	14295.426758
1392.298828	14205.969727
1391.257813	13924.420898
1390.216797	13698.213867
1389.175781	13762.572266
1388.133789	13644.496094
1387.091797	13564.861328
1386.049805	13626.804688
1385.007813	13664.735352
1383.964844	14057.566406
1382.922852	14057.028320
1381.879883	14073.269531
1380.835938	14413.041016
1379.792969	14323.772461
1378.749023	14874.159180
1377.706055	14990.805664
1376.661133	15126.558594
1375.617188	15135.368164
1374.573242	15189.650391
1373.528320	15399.459961
1372.483398	15317.286133
1371.438477	15206.440430
1370.392578	15406.544922
1369.347656	15204.864258
1368.301758	15067.811523
1367.255859	15057.490234
1366.208984	15025.665039
1365.163086	14456.310547
1364.116211	14527.332031
1363.069336	14381.007813
1362.022461	14471.113281
1360.974609	14296.214844
1359.927734	14340.954102
1358.879883	14335.566406
1357.832031	14511.483398
1356.783203	14286.631836
1355.735352	14443.407227
1354.686523	14509.520508
1353.637695	14859.250977
1352.588867	15297.008789
1351.539063	15343.837891
1350.490234	15638.383789
1349.440430	16016.160156
1348.390625	16472.351563
1347.339844	17128.322266
1346.290039	17429.382813
1345.239258	18039.662109
1344.188477	18706.783203
1343.137695	19290.371094
1342.085938	20002.130859
1341.034180	20725.478516
1339.982422	21472.292969
1338.930664	21705.447266
1337.878906	22451.738281
1336.826172	22641.824219
1335.773438	23112.091797
1334.720703	23290.083984
1333.667969	23508.359375
1332.614258	23512.917969
1331.561523	23605.277344
1330.507813	23386.785156
1329.453125	23291.732422
1328.399414	23478.939453
1327.344727	23258.234375
1326.290039	23039.992188
1325.235352	22705.703125
1324.180664	22708.039063
1323.125000	22793.292969
1322.070313	22018.697266
1321.014648	21997.490234
1319.958008	21490.927734
1318.902344	21091.097656
1317.845703	20627.535156
1316.789063	19977.240234
1315.732422	19632.386719
1314.675781	18715.312500
1313.618164	18333.031250
1312.560547	17681.398438
1311.502930	17415.310547
1310.445313	16813.767578
1309.386719	16217.203125
1308.329102	15727.184570
1307.270508	15194.862305
1306.210938	15132.631836
1305.152344	14704.525391
1304.092773	14404.045898
1303.033203	14082.456055
1301.973633	13850.648438
1300.914063	13687.338867
1299.853516	13205.745117
1298.792969	13155.806641
1297.732422	13129.459961
1296.671875	12810.895508
1295.611328	12610.273438
1294.549805	12515.740234
1293.488281	12270.515625
1292.426758	11999.491211
1291.364258	12145.271484
1290.302734	12020.315430
1289.240234	11928.355469
1288.177734	11808.201172
1287.114258	11880.977539
1286.051758	11897.281250
1284.988281	11633.783203
1283.924805	11824.083008
1282.861328	11854.487305
1281.796875	11696.900391
1280.732422	11948.143555
1279.667969	11994.940430
1278.603516	12011.189453
1277.539063	12194.119141
1276.473633	12445.041016
1275.408203	12416.593750
1274.342773	12618.089844
1273.277344	12669.372070
1272.210938	12762.844727
1271.145508	12598.355469
1270.079102	12562.868164
1269.011719	12489.895508
1267.945313	12787.187500
1266.877930	12515.060547
1265.810547	12177.464844
1264.743164	12060.137695
1263.674805	12111.430664
1262.607422	12062.047852
1261.539063	11860.566406
1260.470703	11832.314453
1259.401367	11776.000977
1258.333008	11838.990234
1257.263672	11780.359375
1256.194336	11677.334961
1255.125000	11981.043945
1254.054688	11667.706055
1252.985352	11672.238281
1251.915039	12050.499023
1250.843750	11756.024414
1249.773438	11772.207031
1248.702148	11905.097656
1247.630859	11813.882813
1246.559570	12105.374023
1245.488281	12058.477539
1244.416016	12102.562500
1243.343750	12006.715820
1242.271484	11910.908203
1241.199219	11843.112305
1240.125977	11805.637695
1239.053711	11756.529297
1237.980469	11768.004883
1236.906250	11865.642578
1235.833008	11807.236328
1234.758789	11646.426758
1233.684570	11806.865234
1232.610352	11576.315430
1231.536133	11625.031250
1230.460938	11578.363281
1229.385742	11654.960938
1228.310547	11685.027344
1227.235352	11675.564453
1226.159180	11582.443359
1225.083008	11514.917969
1224.006836	11472.973633
1222.930664	11294.021484
1221.853516	11375.203125
1220.777344	11321.705078
1219.700195	11330.894531
1218.622070	11316.875000
1217.544922	11170.622070
1216.466797	11205.349609
1215.388672	10952.508789
1214.310547	11142.603516
1213.232422	11140.224609
1212.153320	11163.337891
1211.074219	11065.956055
1209.995117	11142.353516
1208.916016	11091.335938
1207.835938	11292.730469
1206.755859	11028.720703
1205.675781	10980.072266
1204.595703	11051.773438
1203.514648	10931.419922
1202.434570	10831.933594
1201.353516	10771.802734
1200.271484	10975.270508
1199.190430	10683.977539
1198.108398	10704.801758
1197.026367	10492.249023
1195.944336	10626.295898
1194.862305	10612.472656
1193.779297	10600.962891
1192.696289	10418.623047
1191.613281	10483.325195
1190.530273	10520.307617
1189.446289	10377.319336
1188.362305	10220.552734
1187.278320	10112.280273
1186.194336	10349.895508
1185.109375	10285.437500
1184.024414	10211.788086
1182.939453	10119.735352
1181.854492	10301.854492
1180.768555	10073.935547
1179.683594	10046.444336
1178.597656	10002.848633
1177.510742	9975.381836
1176.424805	10180.343750
1175.337891	10113.738281
1174.250977	10021.858398
1173.164063	10155.385742
1172.077148	10141.707031
1170.989258	10162.513672
1169.901367	9937.403320
1168.813477	10192.609375
1167.724609	9905.563477
1166.636719	10137.697266
1165.547852	10034.482422
1164.458984	10204.501953
1163.369141	10268.867188
1162.280273	10147.330078
1161.190430	10170.381836
1160.100586	10259.942383
1159.010742	10287.543945
1157.919922	10269.278320
1156.829102	10042.423828
1155.738281	10175.474609
1154.647461	10024.347656
1153.555664	9953.462891
1152.464844	10221.571289
1151.373047	10294.930664
1150.280273	10070.647461
1149.188477	10201.225586
1148.095703	10304.287109
1147.002930	10313.501953
1145.910156	10132.864258
1144.817383	10242.731445
1143.723633	10117.057617
1142.629883	10220.021484
1141.536133	10229.240234
1140.441406	10149.344727
1139.347656	10316.195313
1138.252930	10122.120117
1137.158203	10119.931641
1136.062500	10197.644531
1134.967773	10211.416016
1133.872070	9981.018555
1132.776367	10008.517578
1131.679688	10086.183594
1130.583984	10366.772461
1129.487305	10245.972656
1128.390625	10241.475586
1127.292969	10535.519531
1126.196289	10307.671875
1125.098633	10273.547852
1124.000977	10515.009766
1122.903320	10460.361328
1121.804688	10583.300781
1120.706055	10790.396484
1119.607422	10838.117188
1118.508789	10587.793945
1117.409180	10587.771484
1116.310547	10776.491211
1115.210938	10805.982422
1114.110352	10678.622070
1113.010742	10728.572266
1111.910156	10773.956055
1110.809570	10612.609375
1109.708984	10755.651367
1108.607422	10621.623047
1107.506836	10714.658203
1106.405273	10433.173828
1105.303711	10417.292969
1104.201172	10394.611328
1103.098633	10358.330078
1101.996094	10242.698242
1100.893555	9997.891602
1099.791016	9968.517578
1098.687500	10063.791992
1097.583984	9789.728516
1096.480469	9674.340820
1095.376953	9724.322266
1094.272461	9774.280273
1093.167969	9901.179688
1092.063477	9724.759766
1090.958008	9754.319336
1089.853516	9842.680664
1088.748047	9655.078125
1087.642578	9607.750000
1086.536133	9763.904297
1085.430664	9608.082031
1084.324219	9493.001953
1083.217773	9644.557617
1082.110352	9588.244141
1081.003906	9448.400391
1079.896484	9529.874023
1078.789063	9570.681641
1077.680664	9527.970703
1076.573242	9571.015625
1075.464844	9643.365234
1074.356445	9668.322266
1073.247070	9449.750977
1072.138672	9510.806641
1071.029297	9522.250000
1069.919922	9565.234375
1068.809570	9522.592773
1067.700195	9506.996094
1066.589844	9381.067383
1065.479492	9455.559570
1064.368164	9658.316406
1063.257813	9552.687500
1062.146484	9784.580078
1061.035156	9710.458984
1059.922852	9523.926758
1058.811523	9665.736328
1057.699219	9575.952148
1056.586914	9515.421875
1055.473633	9533.558594
1054.361328	9668.500000
1053.248047	9715.790039
1052.134766	9727.132813
1051.021484	9709.285156
1049.907227	9648.799805
1048.792969	9848.637695
1047.678711	9790.390625
1046.564453	9844.316406
1045.449219	9938.581055
1044.333984	10176.290039
1043.218750	10131.466797
1042.103516	10115.795898
1040.987305	10133.738281
1039.871094	10234.552734
1038.754883	10062.100586
1037.638672	10200.947266
1036.521484	10375.547852
1035.404297	10227.794922
1034.287109	10370.986328
1033.169922	10357.519531
1032.051758	10554.294922
1030.933594	10587.749023
1029.815430	10529.530273
1028.697266	10661.317383
1027.578125	10752.823242
1026.458984	10560.557617
1025.339844	10609.604492
1024.220703	10739.021484
1023.100586	10959.916992
1021.980469	10863.752930
1020.860352	10825.652344
1019.740234	10957.134766
1018.619141	11182.245117
1017.498047	11199.850586
1016.376953	10936.509766
1015.255859	11192.681641
1014.133789	11194.668945
1013.011719	11245.675781
1011.889648	11310.024414
1010.767578	11347.617188
1009.644531	11287.217773
1008.521484	11097.721680
1007.398438	11317.843750
1006.274414	11573.471680
1005.151367	11566.464844
1004.027344	11454.919922
1002.902344	11443.493164
1001.778320	11454.302734
1000.653320	11307.290039
999.528320	11240.342773
998.403320	11162.315430
997.278320	11008.796875
996.152344	10899.761719
995.026367	10895.128906
993.900391	10757.307617
992.773438	10637.300781
991.646484	10466.312500
990.519531	10266.560547
989.392578	10339.694336
988.265625	10277.534180
987.137695	10326.245117
986.009766	10330.605469
984.881836	10221.952148
983.752930	10213.039063
982.624023	10007.001953
981.495117	10113.289063
980.366211	9953.856445
979.236328	9945.007813
978.106445	9964.929688
976.976563	10093.253906
975.846680	10051.197266
974.715820	10128.579102
973.585938	10024.624023
972.454102	10115.238281
971.323242	10055.531250
970.191406	10121.791016
969.060547	10185.812500
967.927734	10519.246094
966.795898	10609.644531
965.663086	10845.701172
964.530273	11205.247070
963.397461	11441.064453
962.264648	11906.208008
961.130859	12146.172852
959.997070	12707.974609
958.863281	12835.217773
957.729492	12896.279297
956.594727	13179.878906
955.459961	12798.003906
954.325195	12475.770508
953.189453	12039.166992
952.053711	11728.250977
950.917969	11582.561523
949.782227	11205.863281
948.646484	10882.137695
947.509766	10499.163086
946.373047	10448.438477
945.235352	10305.389648
944.098633	10030.510742
942.960938	9922.781250
941.823242	9837.071289
940.685547	9768.972656
939.546875	9698.707031
938.408203	9667.996094
937.269531	9641.688477
936.129883	9628.560547
934.991211	9771.233398
933.851563	9720.786133
932.711914	9808.540039
931.571289	9729.598633
930.431641	9806.346680
929.291016	9690.177734
928.149414	9652.949219
927.008789	9558.772461
925.867188	9782.243164
924.725586	9729.687500
923.583984	9841.358398
922.441406	9672.797852
921.299805	9690.328125
920.157227	9648.775391
919.013672	9401.621094
917.871094	9624.770508
916.727539	9445.511719
915.583984	9336.282227
914.439453	9377.899414
913.295898	9382.351563
912.151367	9613.990234
911.006836	9345.384766
909.861328	9360.756836
908.716797	9380.487305
907.571289	9413.303711
906.424805	9415.555664
905.279297	9513.794922
904.132813	9444.045898
902.986328	9559.676758
901.839844	9533.549805
900.692383	9629.490234
899.545898	9341.863281
898.398438	9544.555664
897.250000	9507.560547
896.102539	9592.530273
894.954102	9461.921875
893.805664	9448.911133
892.656250	9270.516602
891.507813	9257.553711
890.358398	9362.055664
889.208984	9309.931641
888.058594	9296.965820
886.908203	9381.823242
885.758789	9099.363281
884.607422	9188.570313
883.457031	9151.745117
882.305664	9236.555664
881.154297	9247.502930
880.002930	9228.053711
878.850586	9115.289063
877.698242	9061.160156
876.545898	9069.963867
875.393555	9091.777344
874.240234	9167.788086
873.086914	9031.313477
871.933594	8990.264648
870.780273	8927.563477
869.625977	8934.215820
868.471680	8943.029297
867.317383	9034.124023
866.162109	8900.024414
865.007813	8876.371094
863.852539	9073.451172
862.696289	8941.594727
861.541016	9175.338867
860.384766	9227.329102
859.228516	8907.430664
858.072266	9229.644531
856.915039	9013.618164
855.757813	9000.778320
854.600586	9143.465820
853.442383	9119.803711
852.285156	9091.832031
851.126953	9202.022461
849.968750	9247.418945
848.809570	9055.458008
847.650391	9062.037109
846.491211	8982.347656
845.332031	9120.463867
844.171875	9055.885742
843.012695	8838.319336
841.851563	8950.515625
840.691406	8985.109375
839.530273	9196.290039
838.369141	9082.240234
837.208008	9060.807617
836.046875	8994.187500
834.884766	8962.024414
833.722656	9061.102539
832.560547	9009.580078
831.397461	8910.774414
830.234375	9097.935547
829.071289	8831.506836
827.908203	9031.493164
826.744141	8855.428711
825.580078	9018.803711
824.416016	8939.451172
823.251953	8913.806641
822.086914	8969.735352
820.921875	8974.136719
819.756836	8991.407227
818.590820	8907.858398
817.425781	8987.323242
816.259766	8895.235352
815.092773	8923.222656
813.926758	8951.196289
812.759766	8769.193359
811.592773	9028.523438
810.424805	9137.829102
809.257813	8801.751953
808.089844	9071.598633
806.920898	8872.650391
805.752930	8921.981445
804.583984	8793.746094
803.415039	8943.584961
802.246094	8823.953125
801.076172	8864.697266
799.906250	8794.291016
798.736328	9005.953125
797.566406	9012.447266
796.395508	9085.142578
795.224609	9080.938477
794.053711	9164.257813
792.881836	9226.195313
791.710938	9324.377930
790.538086	9313.720703
789.366211	9441.695313
788.194336	9384.103516
787.021484	9381.963867
785.848633	9232.765625
784.674805	9194.436523
783.500977	9171.036133
782.327148	9224.319336
781.153320	9120.005859
779.979492	9158.373047
778.804688	9207.364258
777.629883	9137.169922
776.454102	9166.995117
775.279297	9050.048828
774.103516	9186.200195
772.927734	9071.426758
771.750977	8986.461914
770.575195	9043.909180
769.398438	9009.974609
768.220703	8942.072266
767.043945	9129.022461
765.866211	9065.367188
764.688477	9054.804688
763.510742	9082.444336
762.332031	9144.014648
761.153320	9107.986328
759.974609	9356.135742
758.794922	9398.517578
757.616211	9459.957031
756.436523	9631.563477
755.255859	9601.817383
754.076172	9853.801758
752.895508	9963.785156
751.714844	10099.123047
750.533203	10407.970703
749.352539	10695.513672
748.170898	10951.187500
746.988281	11426.732422
745.806641	12105.078125
744.624023	13055.859375
743.441406	14634.008789
742.258789	16496.734375
741.075195	19322.068359
739.891602	23136.808594
738.708008	27298.259766
737.523438	32589.513672
736.339844	37631.359375
735.155273	41784.511719
733.969727	44585.382813
732.785156	46313.359375
731.599609	44697.800781
730.414063	42334.460938
729.227539	38218.332031
728.041992	33834.324219
726.855469	28917.136719
725.667969	25312.486328
724.481445	22221.267578
723.293945	19611.541016
722.106445	17859.792969
720.918945	16249.858398
719.730469	15013.095703
718.541992	14134.523438
717.353516	13231.115234
716.164063	12410.125977
714.975586	11852.290039
713.786133	11309.420898
712.595703	10836.142578
711.406250	10325.266602
710.215820	10436.308594
709.025391	10125.239258
707.833984	9829.006836
706.642578	9629.456055
705.451172	9786.716797
704.259766	9698.453125
703.068359	9488.581055
701.875977	9551.402344
700.683594	9423.419922
699.490234	9488.322266
698.297852	9565.766602
697.104492	9530.045898
695.910156	9624.199219
694.716797	9672.240234
693.522461	9506.718750
692.328125	9680.345703
691.132813	9826.689453
689.938477	9872.543945
688.743164	9792.881836
687.547852	9755.077148
686.351563	9905.447266
685.155273	9798.657227
683.958984	9771.324219
682.762695	9620.740234
681.565430	9574.660156
680.368164	9572.453125
679.170898	9551.458008
677.973633	9453.242188
676.775391	9361.331055
675.577148	9651.255859
674.378906	9367.444336
673.179688	9404.906250
671.980469	9465.283203
670.781250	9544.391602
669.581055	9475.504883
668.381836	9439.984375
667.181641	9385.733398
665.980469	9729.256836
664.780273	9614.584961
663.579102	9604.041016
662.377930	9803.683594
661.175781	9957.460938
659.973633	9840.759766
658.771484	9959.103516
657.569336	10116.895508
656.367188	10064.672852
655.164063	10174.568359
653.960938	10170.141602
652.756836	10423.286133
651.552734	10314.967773
650.348633	10495.292969
649.144531	10443.050781
647.939453	10363.853516
646.735352	10645.704102
645.529297	10622.501953
644.324219	10665.671875
643.118164	10569.906250
641.912109	10828.644531
640.706055	10797.128906
639.499023	10792.561523
638.292969	10705.138672
637.084961	10932.539063
635.877930	10996.266602
634.669922	11136.553711
633.461914	11198.133789
632.253906	11431.414063
631.044922	11474.279297
629.836914	11670.161133
628.626953	11626.110352
627.417969	12051.314453
626.208008	11967.927734
624.998047	12074.666016
623.788086	12183.419922
622.577148	12075.275391
621.366211	12126.164063
620.155273	12144.000977
618.944336	11839.879883
617.732422	11857.772461
616.520508	11778.704102
615.308594	11495.499023
614.095703	11197.991211
612.882813	10892.375000
611.669922	10494.158203
610.457031	10320.712891
609.243164	10209.145508
608.029297	9794.885742
606.815430	9646.428711
605.600586	9551.560547
604.385742	9559.638672
603.170898	9254.961914
601.955078	9302.188477
600.740234	9450.166992
599.524414	9240.307617
598.307617	9190.886719
597.091797	9118.880859
595.875000	9205.121094
594.658203	9118.764648
593.440430	8970.833984
592.222656	9048.833984
591.004883	9038.525391
589.787109	9085.686523
588.568359	9108.204102
587.349609	9120.452148
586.130859	8995.284180
584.912109	9130.578125
583.692383	9163.310547
582.472656	9034.118164
581.251953	9060.709961
580.032227	9267.559570
578.811523	9193.729492
577.589844	9207.978516
576.369141	9121.912109
575.147461	9256.920898
573.925781	9344.805664
572.703125	9416.283203
571.481445	9467.274414
570.258789	9724.760742
569.035156	9749.080078
567.812500	9707.987305
566.588867	9750.688477
565.365234	9862.825195
564.140625	9846.241211
562.916992	9899.087891
561.692383	9902.916016
560.466797	9953.682617
559.242188	9728.961914
558.016602	9871.544922
556.791016	9689.776367
555.564453	9895.511719
554.337891	9948.256836
553.111328	9880.728516
551.884766	9821.382813
550.657227	9790.583008
549.429688	9802.568359
548.202148	9731.061523
546.974609	9983.271484
545.746094	9869.014648
544.517578	10117.003906
543.288086	10098.380859
542.058594	10407.216797
540.829102	10502.403320
539.599609	10676.828125
538.370117	10721.095703
537.139648	10781.597656
535.909180	10793.315430
534.677734	10536.932617
533.446289	10627.891602
532.214844	10440.687500
530.983398	10259.658203
529.750977	10005.664063
528.519531	9875.535156
527.286133	9483.829102
526.053711	9649.928711
524.820313	9613.224609
523.586914	9665.715820
522.353516	9695.892578
521.119141	9576.142578
519.884766	9432.143555
518.650391	9470.451172
517.415039	9437.885742
516.179688	9496.413086
514.944336	9312.094727
513.708984	9065.146484
