#Wave		#Intensity
1585.210938	25510.955078
1584.209961	25388.570313
1583.208984	25740.398438
1582.208008	25650.181641
1581.206055	25385.273438
1580.204102	25462.369141
1579.202148	25200.103516
1578.200195	25237.289063
1577.198242	25301.894531
1576.195313	25154.523438
1575.192383	25052.085938
1574.189453	25054.375000
1573.186523	24984.394531
1572.182617	25173.552734
1571.178711	24707.517578
1570.174805	24707.380859
1569.170898	24542.910156
1568.166992	24642.380859
1567.162109	24535.234375
1566.158203	24555.037109
1565.153320	24679.318359
1564.147461	24554.816406
1563.142578	24788.464844
1562.136719	24852.949219
1561.130859	24579.337891
1560.125000	24686.085938
1559.119141	24899.630859
1558.113281	25205.003906
1557.106445	25291.683594
1556.099609	25599.330078
1555.092773	25949.052734
1554.084961	26191.898438
1553.078125	26459.457031
1552.070313	27173.511719
1551.062500	27264.630859
1550.054688	27631.001953
1549.045898	28309.652344
1548.038086	28660.781250
1547.029297	29309.191406
1546.020508	29793.781250
1545.011719	30530.876953
1544.001953	30878.773438
1542.992188	31793.648438
1541.982422	32336.740234
1540.972656	32820.195313
1539.962891	33085.648438
1538.952148	33388.109375
1537.942383	33895.781250
1536.931641	33995.121094
1535.919922	33730.894531
1534.909180	33407.441406
1533.897461	32962.996094
1532.886719	31910.767578
1531.874023	31914.044922
1530.862305	31158.910156
1529.850586	30542.402344
1528.837891	29931.085938
1527.825195	29157.076172
1526.812500	28511.740234
1525.799805	28254.119141
1524.786133	27567.291016
1523.772461	26935.013672
1522.758789	26914.638672
1521.745117	26514.541016
1520.731445	26272.384766
1519.716797	26057.439453
1518.702148	25872.154297
1517.687500	25571.148438
1516.672852	25457.470703
1515.657227	25686.156250
1514.642578	25560.189453
1513.626953	25471.197266
1512.610352	25480.689453
1511.594727	25719.019531
1510.579102	25716.152344
1509.562500	25474.699219
1508.545898	25383.353516
1507.529297	25707.552734
1506.511719	25340.882813
1505.494141	26040.970703
1504.477539	25966.777344
1503.458984	26067.033203
1502.441406	25820.935547
1501.423828	26031.677734
1500.405273	26018.919922
1499.386719	25750.890625
1498.368164	25728.376953
1497.348633	25725.500000
1496.330078	25710.357422
1495.310547	26104.792969
1494.291016	25893.414063
1493.271484	25861.082031
1492.250977	25897.390625
1491.231445	25950.835938
1490.210938	25705.357422
1489.190430	25834.751953
1488.168945	25687.357422
1487.148438	25963.607422
1486.126953	26112.447266
1485.105469	26033.611328
1484.083984	26057.578125
1483.061523	26284.587891
1482.040039	26205.761719
1481.017578	26457.099609
1479.995117	26334.257813
1478.971680	26788.347656
1477.949219	26751.021484
1476.925781	26870.087891
1475.902344	27343.324219
1474.878906	27415.810547
1473.855469	28230.597656
1472.831055	28752.080078
1471.806641	29026.816406
1470.782227	29255.070313
1469.757813	29995.597656
1468.733398	30474.806641
1467.708008	30946.498047
1466.682617	32061.712891
1465.657227	32744.968750
1464.631836	33466.933594
1463.605469	34727.136719
1462.579102	35397.226563
1461.552734	36654.066406
1460.526367	37725.300781
1459.500000	38635.390625
1458.472656	39620.562500
1457.445313	39884.921875
1456.417969	40504.429688
1455.390625	40943.652344
1454.362305	40127.636719
1453.334961	40187.394531
1452.306641	39989.414063
1451.277344	38965.054688
1450.249023	38021.312500
1449.219727	37065.816406
1448.191406	35729.320313
1447.162109	34534.246094
1446.131836	33971.007813
1445.102539	32682.109375
1444.072266	31823.363281
1443.041992	31025.640625
1442.011719	30754.736328
1440.981445	29899.345703
1439.950195	29252.878906
1438.918945	28890.367188
1437.887695	28195.888672
1436.856445	28216.689453
1435.825195	27721.339844
1434.792969	27550.833984
1433.760742	27586.283203
1432.728516	27365.017578
1431.696289	27054.259766
1430.663086	27005.062500
1429.629883	26873.597656
1428.596680	26284.867188
1427.563477	26148.765625
1426.530273	26065.929688
1425.496094	25864.636719
1424.461914	25346.712891
1423.427734	25339.021484
1422.393555	25014.751953
1421.358398	24970.886719
1420.323242	24789.349609
1419.288086	25129.554688
1418.252930	24897.347656
1417.217773	24754.560547
1416.181641	24640.792969
1415.145508	24712.882813
1414.109375	24760.814453
1413.073242	25052.351563
1412.036133	24953.080078
1411.000000	25143.183594
1409.962891	25210.265625
1408.924805	25711.138672
1407.887695	25732.289063
1406.849609	26290.660156
1405.812500	26841.572266
1404.773438	27582.492188
1403.735352	28075.119141
1402.697266	28158.330078
1401.658203	28756.519531
1400.619141	28969.480469
1399.580078	29028.392578
1398.540039	29472.093750
1397.500977	29920.416016
1396.460938	29825.224609
1395.420898	29833.425781
1394.380859	29461.933594
1393.339844	29592.736328
1392.298828	29183.009766
1391.257813	28927.156250
1390.216797	28959.537109
1389.175781	28927.087891
1388.133789	28676.242188
1387.091797	28648.660156
1386.049805	29228.056641
1385.007813	29097.228516
1383.964844	29206.261719
1382.922852	29526.234375
1381.879883	29738.201172
1380.835938	30359.894531
1379.792969	30557.220703
1378.749023	30938.921875
1377.706055	31298.904297
1376.661133	31244.472656
1375.617188	31439.046875
1374.573242	31674.228516
1373.528320	32043.320313
1372.483398	32175.392578
1371.438477	31912.712891
1370.392578	32161.939453
1369.347656	31956.755859
1368.301758	32136.537109
1367.255859	32540.908203
1366.208984	32151.769531
1365.163086	32147.433594
1364.116211	32393.896484
1363.069336	32064.726563
1362.022461	32315.875000
1360.974609	32602.722656
1359.927734	32478.955078
1358.879883	32400.574219
1357.832031	32653.818359
1356.783203	32859.253906
1355.735352	32542.376953
1354.686523	33429.589844
1353.637695	33646.644531
1352.588867	34473.675781
1351.539063	34847.667969
1350.490234	35547.843750
1349.440430	35988.132813
1348.390625	36763.968750
1347.339844	37963.218750
1346.290039	38578.843750
1345.239258	39191.828125
1344.188477	40556.343750
1343.137695	40987.875000
1342.085938	41951.917969
1341.034180	42675.417969
1339.982422	43182.292969
1338.930664	43898.093750
1337.878906	44342.718750
1336.826172	44399.925781
1335.773438	45129.265625
1334.720703	45236.144531
1333.667969	45447.437500
1332.614258	44975.042969
1331.561523	44607.257813
1330.507813	44275.214844
1329.453125	43720.328125
1328.399414	42809.933594
1327.344727	42246.097656
1326.290039	41272.378906
1325.235352	40922.410156
1324.180664	40492.015625
1323.125000	40381.628906
1322.070313	39690.976563
1321.014648	39568.960938
1319.958008	39667.183594
1318.902344	39637.535156
1317.845703	39297.867188
1316.789063	38664.941406
1315.732422	38472.285156
1314.675781	37645.851563
1313.618164	37091.695313
1312.560547	36483.398438
1311.502930	35591.714844
1310.445313	34575.156250
1309.386719	34007.929688
1308.329102	32850.398438
1307.270508	31998.007813
1306.210938	31108.195313
1305.152344	30934.033203
1304.092773	29907.925781
1303.033203	29495.761719
1301.973633	29258.345703
1300.914063	28709.683594
1299.853516	28578.646484
1298.792969	28157.669922
1297.732422	27892.441406
1296.671875	27804.072266
1295.611328	27916.015625
1294.549805	27931.326172
1293.488281	27864.197266
1292.426758	27994.886719
1291.364258	27654.681641
1290.302734	27742.992188
1289.240234	27791.255859
1288.177734	27371.312500
1287.114258	27344.361328
1286.051758	27197.480469
1284.988281	27255.216797
1283.924805	27740.757813
1282.861328	27483.419922
1281.796875	27590.398438
1280.732422	27453.007813
1279.667969	27667.984375
1278.603516	27859.382813
1277.539063	27923.923828
1276.473633	27779.529297
1275.408203	28365.029297
1274.342773	28518.572266
1273.277344	28479.697266
1272.210938	28241.488281
1271.145508	28899.074219
1270.079102	29099.250000
1269.011719	28868.087891
1267.945313	28465.960938
1266.877930	28846.488281
1265.810547	28271.205078
1264.743164	27918.632813
1263.674805	27760.533203
1262.607422	27513.548828
1261.539063	27107.527344
1260.470703	26619.783203
1259.401367	26579.048828
1258.333008	25974.679688
1257.263672	25915.388672
1256.194336	24986.457031
1255.125000	24911.035156
1254.054688	24536.533203
1252.985352	24276.666016
1251.915039	23963.183594
1250.843750	23899.712891
1249.773438	23710.187500
1248.702148	23618.781250
1247.630859	23387.380859
1246.559570	22997.412109
1245.488281	22754.574219
1244.416016	23101.923828
1243.343750	22821.853516
1242.271484	22560.552734
1241.199219	22434.550781
1240.125977	22797.978516
1239.053711	22310.845703
1237.980469	22480.802734
1236.906250	22399.166016
1235.833008	22648.193359
1234.758789	22429.207031
1233.684570	22545.457031
1232.610352	22252.123047
1231.536133	22340.439453
1230.460938	22524.080078
1229.385742	22535.560547
1228.310547	22442.412109
1227.235352	22907.164063
1226.159180	22753.550781
1225.083008	22751.025391
1224.006836	22578.923828
1222.930664	22727.390625
1221.853516	22989.566406
1220.777344	22963.769531
1219.700195	23406.816406
1218.622070	23176.736328
1217.544922	23440.908203
1216.466797	23410.390625
1215.388672	23535.255859
1214.310547	23940.601563
1213.232422	24262.324219
1212.153320	24247.873047
1211.074219	24671.335938
1209.995117	24821.271484
1208.916016	25096.203125
1207.835938	25063.054688
1206.755859	25050.751953
1205.675781	24941.242188
1204.595703	24882.687500
1203.514648	24856.544922
1202.434570	24717.072266
1201.353516	24628.533203
1200.271484	24757.361328
1199.190430	24703.519531
1198.108398	24460.193359
1197.026367	24450.335938
1195.944336	23943.816406
1194.862305	24026.453125
1193.779297	23497.146484
1192.696289	23106.580078
1191.613281	23062.392578
1190.530273	22928.224609
1189.446289	22364.992188
1188.362305	22320.986328
1187.278320	22242.404297
1186.194336	21965.572266
1185.109375	21875.572266
1184.024414	21905.449219
1182.939453	21647.294922
1181.854492	21467.572266
1180.768555	21274.107422
1179.683594	21386.974609
1178.597656	21435.332031
1177.510742	21230.484375
1176.424805	21515.871094
1175.337891	21400.818359
1174.250977	21209.904297
1173.164063	21423.816406
1172.077148	20973.169922
1170.989258	21421.503906
1169.901367	21262.917969
1168.813477	21060.744141
1167.724609	21122.832031
1166.636719	21095.322266
1165.547852	21031.080078
1164.458984	21281.380859
1163.369141	21097.771484
1162.280273	20856.871094
1161.190430	21526.888672
1160.100586	21742.453125
1159.010742	21616.226563
1157.919922	21852.310547
1156.829102	21721.527344
1155.738281	22088.113281
1154.647461	21888.593750
1153.555664	21636.468750
1152.464844	21899.767578
1151.373047	21885.886719
1150.280273	22018.523438
1149.188477	21915.353516
1148.095703	22144.033203
1147.002930	21761.763672
1145.910156	21846.271484
1144.817383	21704.345703
1143.723633	21391.001953
1142.629883	21523.533203
1141.536133	21192.078125
1140.441406	20849.341797
1139.347656	20899.660156
1138.252930	21091.556641
1137.158203	20822.125000
1136.062500	20703.478516
1134.967773	20489.021484
1133.872070	20678.552734
1132.776367	20863.435547
1131.679688	20950.158203
1130.583984	20473.578125
1129.487305	20608.220703
1128.390625	20697.216797
1127.292969	20371.406250
1126.196289	20856.859375
1125.098633	20597.210938
1124.000977	20547.199219
1122.903320	20747.673828
1121.804688	20567.890625
1120.706055	20595.294922
1119.607422	20706.878906
1118.508789	20672.814453
1117.409180	20725.193359
1116.310547	20563.792969
1115.210938	20472.937500
1114.110352	20554.869141
1113.010742	20564.042969
1111.910156	20804.958984
1110.809570	20618.718750
1109.708984	20546.109375
1108.607422	20512.130859
1107.506836	20462.273438
1106.405273	20115.123047
1105.303711	19870.230469
1104.201172	19761.558594
1103.098633	20011.287109
1101.996094	20084.033203
1100.893555	19762.273438
1099.791016	19918.902344
1098.687500	19891.908203
1097.583984	20005.392578
1096.480469	20059.931641
1095.376953	19940.068359
1094.272461	20200.630859
1093.167969	20320.732422
1092.063477	20006.255859
1090.958008	20001.898438
1089.853516	20388.894531
1088.748047	20538.244141
1087.642578	20965.654297
1086.536133	21309.228516
1085.430664	21370.128906
1084.324219	21656.968750
1083.217773	22110.865234
1082.110352	22467.435547
1081.003906	22591.251953
1079.896484	22972.392578
1078.789063	23001.238281
1077.680664	22973.648438
1076.573242	23571.050781
1075.464844	23450.859375
1074.356445	23567.521484
1073.247070	23551.097656
1072.138672	22968.855469
1071.029297	23175.691406
1069.919922	22945.296875
1068.809570	22708.240234
1067.700195	22719.041016
1066.589844	22315.500000
1065.479492	22096.742188
1064.368164	22024.382813
1063.257813	21573.996094
1062.146484	21616.521484
1061.035156	21155.169922
1059.922852	21204.509766
1058.811523	20615.291016
1057.699219	20574.808594
1056.586914	20379.273438
1055.473633	20105.181641
1054.361328	19990.701172
1053.248047	20071.664063
1052.134766	19676.560547
1051.021484	19804.695313
1049.907227	19396.355469
1048.792969	19598.542969
1047.678711	19448.417969
1046.564453	19547.326172
1045.449219	19435.398438
1044.333984	19514.083984
1043.218750	19563.593750
1042.103516	19465.175781
1040.987305	19442.976563
1039.871094	19400.625000
1038.754883	19562.085938
1037.638672	19371.949219
1036.521484	19296.056641
1035.404297	19414.906250
1034.287109	19397.212891
1033.169922	19540.591797
1032.051758	19518.400391
1030.933594	19561.062500
1029.815430	19778.080078
1028.697266	19456.345703
1027.578125	19574.964844
1026.458984	19668.955078
1025.339844	19651.220703
1024.220703	19669.224609
1023.100586	19769.824219
1021.980469	19662.789063
1020.860352	19839.218750
1019.740234	19832.615234
1018.619141	19857.240234
1017.498047	19837.250000
1016.376953	19821.726563
1015.255859	19663.541016
1014.133789	19529.939453
1013.011719	19663.777344
1011.889648	19590.378906
1010.767578	19597.191406
1009.644531	19641.851563
1008.521484	19659.775391
1007.398438	19797.880859
1006.274414	19364.035156
1005.151367	19626.726563
1004.027344	19569.007813
1002.902344	19629.171875
1001.778320	19904.964844
1000.653320	19873.888672
999.528320	19718.378906
998.403320	19596.261719
997.278320	19760.746094
996.152344	19814.113281
995.026367	19978.472656
993.900391	19925.214844
992.773438	20411.277344
991.646484	20162.685547
990.519531	20770.486328
989.392578	20473.126953
988.265625	20796.761719
987.137695	21029.359375
986.009766	21142.167969
984.881836	21106.458984
983.752930	21015.376953
982.624023	20922.121094
981.495117	20800.115234
980.366211	20941.621094
979.236328	20790.886719
978.106445	20352.535156
976.976563	20578.113281
975.846680	20383.314453
974.715820	20089.085938
973.585938	20009.449219
972.454102	19803.849609
971.323242	19611.599609
970.191406	19474.671875
969.060547	19662.529297
967.927734	19457.181641
966.795898	19505.849609
965.663086	19695.775391
964.530273	19358.128906
963.397461	19556.828125
962.264648	19501.736328
961.130859	20004.683594
959.997070	19993.615234
958.863281	20050.894531
957.729492	19993.531250
956.594727	19989.078125
955.459961	19984.626953
954.325195	19938.324219
953.189453	19530.888672
952.053711	19632.216797
950.917969	19722.492188
949.782227	19405.597656
948.646484	19357.267578
947.509766	19471.734375
946.373047	19480.587891
945.235352	19194.806641
944.098633	19630.167969
942.960938	19465.353516
941.823242	19480.785156
940.685547	19548.927734
939.546875	19639.003906
938.408203	19801.496094
937.269531	19768.535156
936.129883	20025.300781
934.991211	20058.128906
933.851563	20150.173828
932.711914	20448.349609
931.571289	20334.136719
930.431641	20450.169922
929.291016	20636.287109
928.149414	20666.734375
927.008789	20381.679688
925.867188	20567.681641
924.725586	20151.378906
923.583984	20192.847656
922.441406	20035.103516
921.299805	19846.789063
920.157227	20004.251953
919.013672	19382.914063
917.871094	19514.162109
916.727539	19096.548828
915.583984	18843.070313
914.439453	19053.023438
913.295898	19009.423828
912.151367	18909.042969
911.006836	18843.650391
909.861328	18782.652344
908.716797	18566.685547
907.571289	18726.210938
906.424805	18656.546875
905.279297	18530.193359
904.132813	18693.976563
902.986328	18929.642578
901.839844	18676.861328
900.692383	18670.488281
899.545898	18681.548828
898.398438	18893.035156
897.250000	18568.603516
896.102539	18675.492188
894.954102	18771.443359
893.805664	18762.869141
892.656250	18869.636719
891.507813	18926.312500
890.358398	18630.578125
889.208984	18480.681641
888.058594	18815.701172
886.908203	18802.773438
885.758789	18639.894531
884.607422	18455.359375
883.457031	18468.583984
882.305664	18436.191406
881.154297	18345.187500
880.002930	18408.349609
878.850586	18267.474609
877.698242	18608.359375
876.545898	18526.068359
875.393555	18289.828125
874.240234	18496.035156
873.086914	18160.181641
871.933594	18299.132813
870.780273	18208.330078
869.625977	18228.052734
868.471680	18319.240234
867.317383	18282.625000
866.162109	18181.076172
865.007813	18222.425781
863.852539	18131.753906
862.696289	18274.775391
861.541016	18171.152344
860.384766	18097.847656
859.228516	17907.828125
858.072266	18176.130859
856.915039	17912.701172
855.757813	18087.976563
854.600586	18150.849609
853.442383	18034.449219
852.285156	18006.621094
851.126953	18155.808594
849.968750	18270.396484
848.809570	18212.322266
847.650391	18184.474609
846.491211	18180.359375
845.332031	18081.373047
844.171875	18062.191406
843.012695	18413.703125
841.851563	17974.289063
840.691406	18164.095703
839.530273	17901.537109
838.369141	18162.328125
837.208008	17962.314453
836.046875	18031.419922
834.884766	18177.955078
833.722656	18064.121094
832.560547	18070.779297
831.397461	17954.867188
830.234375	18079.783203
829.071289	18148.757813
827.908203	18093.068359
826.744141	18228.605469
825.580078	17960.285156
824.416016	18207.449219
823.251953	18233.373047
822.086914	18139.083984
820.921875	18139.257813
819.756836	18268.154297
818.590820	18000.179688
817.425781	18004.667969
816.259766	17972.707031
815.092773	17996.488281
813.926758	17968.824219
812.759766	18151.136719
811.592773	18027.058594
810.424805	17697.451172
809.257813	18155.888672
808.089844	18042.591797
806.920898	17903.664063
805.752930	18027.964844
804.583984	17844.181641
803.415039	18090.335938
802.246094	17996.417969
801.076172	18043.625000
799.906250	17789.472656
798.736328	17988.402344
797.566406	17894.587891
796.395508	18221.541016
795.224609	18099.957031
794.053711	18401.093750
792.881836	18599.652344
791.710938	18450.320313
790.538086	18670.105469
789.366211	18964.435547
788.194336	19469.722656
787.021484	19691.253906
785.848633	19855.134766
784.674805	20061.556641
783.500977	19628.785156
782.327148	19656.255859
781.153320	19466.517578
779.979492	19095.910156
778.804688	19191.585938
777.629883	18774.394531
776.454102	19129.640625
775.279297	18908.328125
774.103516	18816.826172
772.927734	18718.986328
771.750977	18763.597656
770.575195	19014.308594
769.398438	19330.761719
768.220703	19130.937500
767.043945	19413.240234
765.866211	19710.275391
764.688477	20064.480469
763.510742	20316.664063
762.332031	20581.458984
761.153320	21170.660156
759.974609	21721.417969
758.794922	22698.068359
757.616211	23799.328125
756.436523	25472.253906
755.255859	27212.210938
754.076172	29732.978516
752.895508	32998.023438
751.714844	36174.761719
750.533203	40687.820313
749.352539	45133.203125
748.170898	49390.363281
746.988281	52537.160156
745.806641	54868.320313
744.624023	55574.617188
743.441406	55437.167969
742.258789	54355.113281
741.075195	53233.410156
739.891602	52253.742188
738.708008	51304.085938
737.523438	50946.054688
736.339844	50052.011719
735.155273	49555.132813
733.969727	48294.679688
732.785156	45958.968750
731.599609	43436.628906
730.414063	40546.453125
729.227539	36980.925781
728.041992	34133.593750
726.855469	30914.619141
725.667969	28531.318359
724.481445	26471.339844
723.293945	24799.734375
722.106445	23406.769531
720.918945	22595.322266
719.730469	22051.470703
718.541992	21207.042969
717.353516	20642.726563
716.164063	20419.302734
714.975586	19712.472656
713.786133	19611.263672
712.595703	19276.861328
711.406250	18902.695313
710.215820	18896.250000
709.025391	18801.615234
707.833984	18646.142578
706.642578	18509.628906
705.451172	18570.419922
704.259766	18704.609375
703.068359	18947.798828
701.875977	18909.890625
700.683594	19115.181641
699.490234	19743.757813
698.297852	20311.275391
697.104492	20928.808594
695.910156	21692.671875
694.716797	22282.378906
693.522461	23143.970703
692.328125	22996.314453
691.132813	23516.253906
689.938477	23123.804688
688.743164	22708.525391
687.547852	22458.634766
686.351563	22016.517578
685.155273	21361.408203
683.958984	21132.890625
682.762695	20517.976563
681.565430	20302.289063
680.368164	19971.847656
679.170898	19608.150391
677.973633	19672.511719
676.775391	19584.505859
675.577148	19640.494141
674.378906	19492.042969
673.179688	19666.888672
671.980469	19524.751953
670.781250	19180.496094
669.581055	19092.714844
668.381836	19023.724609
667.181641	18836.039063
665.980469	18665.095703
664.780273	18681.609375
663.579102	18431.681641
662.377930	18304.648438
661.175781	18327.470703
659.973633	18701.812500
658.771484	18622.630859
657.569336	18595.460938
656.367188	18624.425781
655.164063	19112.644531
653.960938	19099.921875
652.756836	19193.138672
651.552734	19739.031250
650.348633	20133.105469
649.144531	20203.181641
647.939453	20609.417969
646.735352	20959.443359
645.529297	21303.083984
644.324219	21163.363281
643.118164	21158.472656
641.912109	21130.783203
640.706055	20889.646484
639.499023	20725.281250
638.292969	20306.205078
637.084961	19868.683594
635.877930	19505.898438
634.669922	19406.169922
633.461914	19082.978516
632.253906	19186.154297
631.044922	18925.216797
629.836914	18776.074219
628.626953	18341.671875
627.417969	18337.429688
626.208008	18033.525391
624.998047	18242.167969
623.788086	18076.824219
622.577148	18310.140625
621.366211	17948.705078
620.155273	17583.308594
618.944336	17897.060547
617.732422	17806.259766
616.520508	17558.726563
615.308594	17678.402344
614.095703	17410.392578
612.882813	17602.193359
611.669922	17398.210938
610.457031	17346.792969
609.243164	17095.580078
608.029297	17264.619141
606.815430	17083.546875
605.600586	17394.544922
604.385742	17258.800781
603.170898	17201.306641
601.955078	17425.660156
600.740234	17569.701172
599.524414	17475.160156
598.307617	17536.894531
597.091797	17436.238281
595.875000	17557.535156
594.658203	17520.599609
593.440430	17530.916016
592.222656	17625.412109
591.004883	17738.337891
589.787109	17586.458984
588.568359	17401.818359
587.349609	17410.093750
586.130859	17114.830078
584.912109	17219.535156
583.692383	16981.849609
582.472656	16941.021484
581.251953	17033.398438
580.032227	17197.427734
578.811523	17310.179688
577.589844	17506.830078
576.369141	17861.013672
575.147461	18163.867188
573.925781	18264.009766
572.703125	18531.849609
571.481445	18791.384766
570.258789	19328.880859
569.035156	19812.976563
567.812500	19804.292969
566.588867	20075.546875
565.365234	20393.658203
564.140625	20672.816406
562.916992	20802.787109
561.692383	21106.214844
560.466797	20856.404297
559.242188	20678.125000
558.016602	20373.449219
556.791016	19879.236328
555.564453	19515.750000
554.337891	19195.242188
553.111328	18732.214844
551.884766	18330.531250
550.657227	17990.146484
549.429688	17633.625000
548.202148	17277.267578
546.974609	17529.759766
545.746094	17100.322266
544.517578	16984.439453
543.288086	17092.384766
542.058594	16988.757813
540.829102	17224.753906
539.599609	16848.734375
538.370117	16859.050781
537.139648	16826.689453
535.909180	16873.570313
534.677734	16961.048828
533.446289	16737.812500
532.214844	16831.371094
530.983398	16669.154297
529.750977	16624.701172
528.519531	16872.396484
527.286133	16452.699219
526.053711	16653.679688
524.820313	16534.259766
523.586914	16660.134766
522.353516	16698.820313
521.119141	16794.208984
519.884766	16630.304688
518.650391	16685.166016
517.415039	16634.730469
516.179688	16669.322266
514.944336	16491.431641
513.708984	16554.363281
