#Wave		#Intensity
1585.210938	6691.193359
1584.209961	6678.705078
1583.208984	6587.424805
1582.208008	6611.025879
1581.206055	6677.050781
1580.204102	6558.375488
1579.202148	6724.186035
1578.200195	6608.043945
1577.198242	6681.496094
1576.195313	6720.007813
1575.192383	6651.305176
1574.189453	6876.742676
1573.186523	6601.203125
1572.182617	6839.014160
1571.178711	6708.069824
1570.174805	6836.181641
1569.170898	6832.275879
1568.166992	6800.988281
1567.162109	6707.492188
1566.158203	6743.428223
1565.153320	6727.104492
1564.147461	6648.604492
1563.142578	6634.793945
1562.136719	6583.694336
1561.130859	6609.674316
1560.125000	6508.895508
1559.119141	6430.520508
1558.113281	6404.346680
1557.106445	6497.401855
1556.099609	6496.056641
1555.092773	6420.230957
1554.084961	6456.134277
1553.078125	6459.760742
1552.070313	6386.469727
1551.062500	6519.101563
1550.054688	6495.431152
1549.045898	6384.983398
1548.038086	6316.726074
1547.029297	6459.175781
1546.020508	6200.119629
1545.011719	6340.056641
1544.001953	6284.249023
1542.992188	6273.041992
1541.982422	6279.170898
1540.972656	6272.919922
1539.962891	6311.221191
1538.952148	6201.037598
1537.942383	6363.035156
1536.931641	6079.744141
1535.919922	6147.728027
1534.909180	6213.210449
1533.897461	6145.182617
1532.886719	6289.723145
1531.874023	6088.278320
1530.862305	6252.533203
1529.850586	6229.009766
1528.837891	6331.433105
1527.825195	6135.083496
1526.812500	6222.673340
1525.799805	6317.629883
1524.786133	6316.321777
1523.772461	6233.609375
1522.758789	6242.184082
1521.745117	6240.891113
1520.731445	6163.175781
1519.716797	6275.278320
1518.702148	6439.083496
1517.687500	6275.143555
1516.672852	6364.983398
1515.657227	6203.588379
1514.642578	6367.271973
1513.626953	6383.185059
1512.610352	6391.708008
1511.594727	6341.170410
1510.579102	6229.149414
1509.562500	6385.277344
1508.545898	6270.833984
1507.529297	6424.429688
1506.511719	6339.522461
1505.494141	6348.039551
1504.477539	6405.695313
1503.458984	6342.953613
1502.441406	6329.358887
1501.423828	6347.692383
1500.405273	6447.035645
1499.386719	6354.880859
1498.368164	6314.299316
1497.348633	6241.837891
1496.330078	6272.434570
1495.310547	6371.688477
1494.291016	6213.438477
1493.271484	6261.181641
1492.250977	6250.080078
1491.231445	6182.621094
1490.210938	6252.389648
1489.190430	6331.927246
1488.168945	6325.716797
1487.148438	6297.472656
1486.126953	6345.126465
1485.105469	6233.675781
1484.083984	6354.730957
1483.061523	6265.341797
1482.040039	6349.650879
1481.017578	6451.042480
1479.995117	6464.374512
1478.971680	6582.810547
1477.949219	6498.352539
1476.925781	6582.524414
1475.902344	6634.902832
1474.878906	6662.835449
1473.855469	6783.547852
1472.831055	6816.320313
1471.806641	6819.788574
1470.782227	6808.612305
1469.757813	6846.237793
1468.733398	7000.936035
1467.708008	6721.455566
1466.682617	6866.361328
1465.657227	6835.682617
1464.631836	7104.807617
1463.605469	6866.961914
1462.579102	6826.555664
1461.552734	7058.977051
1460.526367	7016.111816
1459.500000	7063.351563
1458.472656	7044.845703
1457.445313	7140.734863
1456.417969	7100.319824
1455.390625	6909.089355
1454.362305	6949.003418
1453.334961	6979.173828
1452.306641	6895.062012
1451.277344	6954.398926
1450.249023	6909.210449
1449.219727	6885.907715
1448.191406	6918.487305
1447.162109	6977.768555
1446.131836	6711.641602
1445.102539	6838.916992
1444.072266	6798.660645
1443.041992	6792.395020
1442.011719	6710.918457
1440.981445	6859.917969
1439.950195	6824.539551
1438.918945	6844.943848
1437.887695	6942.913574
1436.856445	6827.556641
1435.825195	6794.636230
1434.792969	6880.440430
1433.760742	6891.121094
1432.728516	6681.423340
1431.696289	6660.665039
1430.663086	6678.645020
1429.629883	6655.474609
1428.596680	6641.992188
1427.563477	6534.167480
1426.530273	6673.090820
1425.496094	6562.885254
1424.461914	6394.701660
1423.427734	6555.320801
1422.393555	6493.540527
1421.358398	6487.356934
1420.323242	6568.138672
1419.288086	6494.317383
1418.252930	6389.136230
1417.217773	6612.320801
1416.181641	6680.939941
1415.145508	6614.394531
1414.109375	6576.827637
1413.073242	6565.809570
1412.036133	6747.725586
1411.000000	6678.809082
1409.962891	6822.055176
1408.924805	6835.094727
1407.887695	6925.236328
1406.849609	7029.794434
1405.812500	7213.792969
1404.773438	7231.554688
1403.735352	7422.656250
1402.697266	7442.772949
1401.658203	7616.903809
1400.619141	7552.757324
1399.580078	7625.756348
1398.540039	7600.115234
1397.500977	7442.231445
1396.460938	7361.344727
1395.420898	7369.423828
1394.380859	7327.033691
1393.339844	7181.350098
1392.298828	7042.932617
1391.257813	6914.178711
1390.216797	7049.598145
1389.175781	6928.097656
1388.133789	6749.044922
1387.091797	6752.435547
1386.049805	6899.769531
1385.007813	6883.937500
1383.964844	6853.723145
1382.922852	6847.496582
1381.879883	6884.419922
1380.835938	6863.809570
1379.792969	6898.316895
1378.749023	6906.458496
1377.706055	6888.250000
1376.661133	6953.858887
1375.617188	6978.740723
1374.573242	6927.017090
1373.528320	6959.072266
1372.483398	7010.254395
1371.438477	7027.925293
1370.392578	7153.209473
1369.347656	7101.500977
1368.301758	6913.550781
1367.255859	7067.459961
1366.208984	7077.929688
1365.163086	6923.547852
1364.116211	7022.419434
1363.069336	6853.784668
1362.022461	6919.202637
1360.974609	6958.334961
1359.927734	6918.692871
1358.879883	6828.959473
1357.832031	7004.062988
1356.783203	6904.808105
1355.735352	7098.897461
1354.686523	6780.328125
1353.637695	6945.758301
1352.588867	7096.820801
1351.539063	7078.655762
1350.490234	7103.375488
1349.440430	7297.176758
1348.390625	7374.223145
1347.339844	7605.975098
1346.290039	7828.108398
1345.239258	7909.752930
1344.188477	8207.859375
1343.137695	8267.981445
1342.085938	8587.290039
1341.034180	8649.683594
1339.982422	9002.055664
1338.930664	9031.062500
1337.878906	9121.834961
1336.826172	9343.227539
1335.773438	9327.015625
1334.720703	9386.796875
1333.667969	9482.164063
1332.614258	9363.866211
1331.561523	9506.659180
1330.507813	9421.621094
1329.453125	9450.479492
1328.399414	9427.149414
1327.344727	9268.675781
1326.290039	9316.510742
1325.235352	9397.506836
1324.180664	9127.764648
1323.125000	9263.254883
1322.070313	9149.981445
1321.014648	9209.628906
1319.958008	9094.045898
1318.902344	8789.140625
1317.845703	8829.891602
1316.789063	8624.545898
1315.732422	8447.674805
1314.675781	8438.801758
1313.618164	8228.937500
1312.560547	8170.465332
1311.502930	7930.017578
1310.445313	7703.849121
1309.386719	7718.765137
1308.329102	7504.545898
1307.270508	7280.969727
1306.210938	7248.740723
1305.152344	7336.918457
1304.092773	7066.313965
1303.033203	7015.271973
1301.973633	7086.926758
1300.914063	6950.988770
1299.853516	6843.405762
1298.792969	6922.123047
1297.732422	6835.804688
1296.671875	6766.019043
1295.611328	6783.440918
1294.549805	6612.400391
1293.488281	6566.256348
1292.426758	6520.131348
1291.364258	6424.587402
1290.302734	6543.269531
1289.240234	6320.687012
1288.177734	6293.472656
1287.114258	6365.061523
1286.051758	6377.827148
1284.988281	6357.669922
1283.924805	6245.842773
1282.861328	6359.683105
1281.796875	6262.000488
1280.732422	6307.661133
1279.667969	6470.738281
1278.603516	6178.189453
1277.539063	6202.707520
1276.473633	6196.701172
1275.408203	6420.676758
1274.342773	6379.432129
1273.277344	6352.278809
1272.210938	6393.148926
1271.145508	6377.727051
1270.079102	6355.278320
1269.011719	6433.620117
1267.945313	6397.108398
1266.877930	6255.187500
1265.810547	6249.177734
1264.743164	6236.144531
1263.674805	6099.028809
1262.607422	6100.077148
1261.539063	6154.950684
1260.470703	6258.936035
1259.401367	6168.715820
1258.333008	6221.199707
1257.263672	6222.218750
1256.194336	6239.601074
1255.125000	6373.840820
1254.054688	6297.709961
1252.985352	6074.423340
1251.915039	6334.745605
1250.843750	6347.412598
1249.773438	6217.648926
1248.702148	6307.367676
1247.630859	6471.729980
1246.559570	6286.021484
1245.488281	6461.981934
1244.416016	6318.334961
1243.343750	6344.974609
1242.271484	6406.572266
1241.199219	6314.306152
1240.125977	6415.499512
1239.053711	6248.714355
1237.980469	6196.138672
1236.906250	6274.002441
1235.833008	6384.429688
1234.758789	6264.348633
1233.684570	6290.943848
1232.610352	6194.201660
1231.536133	6083.541504
1230.460938	6193.889648
1229.385742	6194.895508
1228.310547	6130.803223
1227.235352	6101.604004
1226.159180	6146.782227
1225.083008	6175.676270
1224.006836	6246.370605
1222.930664	6186.978027
1221.853516	6129.932129
1220.777344	6072.909668
1219.700195	6004.306641
1218.622070	6070.318848
1217.544922	6096.863281
1216.466797	6109.478516
1215.388672	5969.036133
1214.310547	6014.131348
1213.232422	6056.888672
1212.153320	6016.197754
1211.074219	6049.667480
1209.995117	6032.159668
1208.916016	6081.822754
1207.835938	6177.774414
1206.755859	5958.842773
1205.675781	6080.238281
1204.595703	5930.840332
1203.514648	6012.858887
1202.434570	5888.982422
1201.353516	6024.162109
1200.271484	5900.334961
1199.190430	5785.806152
1198.108398	5766.079590
1197.026367	5769.466309
1195.944336	5819.052246
1194.862305	5866.307129
1193.779297	5839.650391
1192.696289	5776.067871
1191.613281	5668.658203
1190.530273	5803.591309
1189.446289	5800.040527
1188.362305	5773.424316
1187.278320	5834.451660
1186.194336	5814.755371
1185.109375	5769.710938
1184.024414	5775.387207
1182.939453	5781.060059
1181.854492	5782.123047
1180.768555	5808.520020
1179.683594	5710.562012
1178.597656	5626.458496
1177.510742	5680.489746
1176.424805	5764.412598
1175.337891	5717.161133
1174.250977	5598.623535
1173.164063	5746.899902
1172.077148	5708.877441
1170.989258	5640.988281
1169.901367	5798.351074
1168.813477	5815.485840
1167.724609	5586.811035
1166.636719	5652.213867
1165.547852	5694.625977
1164.458984	5700.287598
1163.369141	5738.079590
1162.280273	5672.591797
1161.190430	5545.187012
1160.100586	5798.599121
1159.010742	5779.003906
1157.919922	5612.680176
1156.829102	5668.777344
1155.738281	5720.266602
1154.647461	5817.558594
1153.555664	5621.587891
1152.464844	5599.762695
1151.373047	5635.191895
1150.280273	5675.184082
1149.188477	5696.847656
1148.095703	5796.304199
1147.002930	5671.510742
1145.910156	5654.275391
1144.817383	5577.589355
1143.723633	5617.539063
1142.629883	5586.609863
1141.536133	5617.397949
1140.441406	5771.554688
1139.347656	5548.724121
1138.252930	5538.389160
1137.158203	5530.341797
1136.062500	5515.448730
1134.967773	5632.940430
1133.872070	5586.084473
1132.776367	5625.940918
1131.679688	5611.038574
1130.583984	5771.733887
1129.487305	5551.611816
1128.390625	5725.926270
1127.292969	5845.469727
1126.196289	5846.482422
1125.098633	5826.992676
1124.000977	5866.724121
1122.903320	5767.543945
1121.804688	5711.658691
1120.706055	5717.248535
1119.607422	5775.171387
1118.508789	5869.468750
1117.409180	5652.118652
1116.310547	5628.152832
1115.210938	5817.906250
1114.110352	5746.180664
1113.010742	5774.476074
1111.910156	5852.743652
1110.809570	5731.081543
1109.708984	5827.491699
1108.607422	5710.428223
1107.506836	5738.698242
1106.405273	5814.616699
1105.303711	5663.594238
1104.201172	5578.426270
1103.098633	5627.111328
1101.996094	5517.043457
1100.893555	5704.012695
1099.791016	5598.508301
1098.687500	5626.749512
1097.583984	5489.588379
1096.480469	5531.431152
1095.376953	5550.608398
1094.272461	5687.512695
1093.167969	5602.519043
1092.063477	5519.825684
1090.958008	5602.341309
1089.853516	5517.420898
1088.748047	5541.096680
1087.642578	5386.128906
1086.536133	5479.903320
1085.430664	5458.367188
1084.324219	5601.797363
1083.217773	5530.540039
1082.110352	5425.432617
1081.003906	5442.314941
1079.896484	5549.498047
1078.789063	5611.489258
1077.680664	5418.440918
1076.573242	5464.639160
1075.464844	5431.865234
1074.356445	5426.167969
1073.247070	5562.523438
1072.138672	5464.374023
1071.029297	5409.088867
1069.919922	5389.879883
1068.809570	5438.263184
1067.700195	5358.243164
1066.589844	5370.582031
1065.479492	5407.679688
1064.368164	5458.265625
1063.257813	5436.818359
1062.146484	5503.123535
1061.035156	5375.955078
1059.922852	5543.442383
1058.811523	5510.750977
1057.699219	5451.099121
1056.586914	5467.884277
1055.473633	5545.327148
1054.361328	5555.343750
1053.248047	5482.256836
1052.134766	5427.165039
1051.021484	5493.322754
1049.907227	5539.250488
1048.792969	5452.766113
1047.678711	5397.727051
1046.564453	5441.401367
1045.449219	5554.572266
1044.333984	5618.370117
1043.218750	5487.130859
1042.103516	5602.457031
1040.987305	5455.594238
1039.871094	5579.835938
1038.754883	5506.945313
1037.638672	5588.578613
1036.521484	5573.918945
1035.404297	5657.738770
1034.287109	5640.832031
1033.169922	5644.065430
1032.051758	5714.393555
1030.933594	5704.191895
1029.815430	5682.816406
1028.697266	5686.036133
1027.578125	5606.573730
1026.458984	5701.405273
1025.339844	5675.580078
1024.220703	5618.501953
1023.100586	5697.638672
1021.980469	5607.098145
1020.860352	5797.782715
1019.740234	5716.183594
1018.619141	5674.771973
1017.498047	5655.679199
1016.376953	5632.135254
1015.255859	5659.872070
1014.133789	5504.844238
1013.011719	5568.247070
1011.889648	5609.344238
1010.767578	5739.511230
1009.644531	5624.681641
1008.521484	5714.714844
1007.398438	5648.906250
1006.274414	5620.955566
1005.151367	5528.499023
1004.027344	5602.901855
1002.902344	5574.978027
1001.778320	5611.541504
1000.653320	5561.399414
999.528320	5595.726074
998.403320	5378.973633
997.278320	5408.882324
996.152344	5401.022949
995.026367	5515.284180
993.900391	5454.127930
992.773438	5483.991211
991.646484	5354.083496
990.519531	5359.552734
989.392578	5345.058594
988.265625	5310.613770
987.137695	5369.292480
986.009766	5339.289551
984.881836	5369.128418
983.752930	5356.860840
982.624023	5318.019531
981.495117	5454.134277
980.366211	5379.864746
979.236328	5290.133301
978.106445	5373.051270
976.976563	5334.247070
975.846680	5421.541504
974.715820	5376.107910
973.585938	5401.446289
972.454102	5415.719727
971.323242	5553.747070
970.191406	5430.989746
969.060547	5518.143555
967.927734	5625.135254
966.795898	5778.447754
965.663086	5474.728027
964.530273	5707.458984
963.397461	5876.095215
962.264648	5998.328613
961.130859	6285.925781
959.997070	6191.912598
958.863281	6386.744141
957.729492	6323.606934
956.594727	6251.683105
955.459961	6219.446777
954.325195	6218.061523
953.189453	6144.004883
952.053711	6052.367676
950.917969	5872.724121
949.782227	5730.571289
948.646484	5724.893066
947.509766	5604.833008
946.373047	5671.758301
945.235352	5661.698242
944.098633	5497.766113
942.960938	5500.935059
941.823242	5462.354004
940.685547	5410.609375
939.546875	5363.279785
938.408203	5425.759277
937.269531	5354.298340
936.129883	5423.335938
934.991211	5474.787598
933.851563	5431.881348
932.711914	5388.994141
931.571289	5359.282715
930.431641	5432.624023
929.291016	5422.642090
928.149414	5454.299805
927.008789	5435.552734
925.867188	5495.666992
924.725586	5448.449707
923.583984	5381.547852
922.441406	5446.010742
921.299805	5440.414551
920.157227	5362.618652
919.013672	5409.541504
917.871094	5307.729980
916.727539	5201.590332
915.583984	5314.095703
914.439453	5419.993164
913.295898	5469.032715
912.151367	5319.260742
911.006836	5359.563965
909.861328	5386.748047
908.716797	5400.820801
907.571289	5386.513672
906.424805	5461.676758
905.279297	5453.906738
904.132813	5500.666016
902.986328	5414.388184
901.839844	5424.072754
900.692383	5383.622070
899.545898	5391.129395
898.398438	5501.027832
897.250000	5443.160156
896.102539	5474.601563
894.954102	5508.205566
893.805664	5552.677734
892.656250	5349.044434
891.507813	5428.342285
890.358398	5392.317871
889.208984	5371.532715
888.058594	5389.892090
886.908203	5458.238281
885.758789	5437.450684
884.607422	5399.290039
883.457031	5309.011719
882.305664	5457.668457
881.154297	5295.764160
880.002930	5199.056641
878.850586	5260.824219
877.698242	5346.431641
876.545898	5176.019043
875.393555	5157.501465
874.240234	5193.200684
873.086914	5276.576660
871.933594	5206.030762
870.780273	5278.530273
869.625977	5192.850098
868.471680	5187.346680
867.317383	5162.356934
866.162109	5312.736816
865.007813	5214.137695
863.852539	5174.009277
862.696289	5242.071777
861.541016	5214.932129
860.384766	5038.592773
859.228516	5208.252441
858.072266	5178.976074
856.915039	5013.568359
855.757813	5131.264160
854.600586	5147.384766
853.442383	5036.083496
852.285156	5173.125488
851.126953	5137.417969
849.968750	5233.370117
848.809570	5165.300293
847.650391	5174.917480
846.491211	4927.891113
845.332031	5064.768555
844.171875	5050.687988
843.012695	5127.130371
841.851563	5153.979980
840.691406	5198.050781
839.530273	5149.492188
838.369141	5163.397949
837.208008	5112.715332
836.046875	5214.863770
834.884766	5084.577148
833.722656	5087.727051
832.560547	5120.985840
831.397461	5044.564941
830.234375	5092.866211
829.071289	5098.158691
827.908203	5101.299805
826.744141	5048.582520
825.580078	5023.810547
824.416016	5074.207031
823.251953	5113.845703
822.086914	5039.708008
820.921875	5156.587891
819.756836	5095.345215
818.590820	5126.361816
817.425781	5088.742188
816.259766	5046.851074
815.092773	5077.855957
813.926758	5035.985352
812.759766	5120.540527
811.592773	5016.560547
810.424805	5056.108398
809.257813	5020.702637
808.089844	5049.528320
806.920898	5052.659668
805.752930	5030.114746
804.583984	5097.420410
803.415039	5032.103027
802.246094	5107.929688
801.076172	4937.895020
799.906250	4949.593750
798.736328	4950.603516
797.566406	4983.654785
796.395508	4931.263672
795.224609	4951.492188
794.053711	4963.172363
792.881836	5047.409668
791.710938	4990.782715
790.538086	5047.242676
789.366211	5035.428711
788.194336	5085.455078
787.021484	5146.117188
785.848633	5021.328613
784.674805	5081.977051
783.500977	5112.772461
782.327148	4958.257813
781.153320	5153.026855
779.979492	4949.608887
778.804688	4918.682129
777.629883	4987.779785
776.454102	5052.590820
775.279297	5104.610352
774.103516	4956.720703
772.927734	5095.901367
771.750977	4986.338867
770.575195	4904.450684
769.398438	5001.056641
768.220703	5048.766113
767.043945	4888.348145
765.866211	5023.105469
764.688477	5021.957031
763.510742	4940.170410
762.332031	4936.919434
761.153320	5037.603027
759.974609	5042.812988
758.794922	5062.860352
757.616211	4983.275879
756.436523	5060.544434
755.255859	5188.625488
754.076172	5265.810547
752.895508	5086.718750
751.714844	5077.085449
750.533203	5109.791016
749.352539	5248.292969
748.170898	5386.731445
746.988281	5387.613281
745.806641	5640.154297
744.624023	5831.264648
743.441406	6094.156738
742.258789	6597.848633
741.075195	7335.836426
739.891602	8054.473633
738.708008	9161.369141
737.523438	10392.328125
736.339844	11852.812500
735.155273	12797.680664
733.969727	13887.700195
732.785156	14099.680664
731.599609	14174.479492
730.414063	13426.926758
729.227539	12458.375000
728.041992	11384.889648
726.855469	10170.724609
725.667969	9182.517578
724.481445	8285.325195
723.293945	7731.756348
722.106445	7290.012207
720.918945	7025.259277
719.730469	6518.650391
718.541992	6342.549316
717.353516	6147.599609
716.164063	5862.323242
714.975586	5604.505859
713.786133	5577.997559
712.595703	5316.160645
711.406250	5075.451660
710.215820	5210.803223
709.025391	5106.715332
707.833984	5063.554688
706.642578	5053.995117
705.451172	5023.456055
704.259766	5003.419922
703.068359	4995.977051
701.875977	4942.405273
700.683594	4993.678711
699.490234	4977.858398
698.297852	4972.521973
697.104492	5004.897461
695.910156	4949.288574
694.716797	5059.132324
693.522461	4959.571777
692.328125	4880.987305
691.132813	4953.103516
689.938477	5008.449219
688.743164	4936.181152
687.547852	4945.500000
686.351563	4984.083008
685.155273	4905.599121
683.958984	5048.656738
682.762695	5009.888184
681.565430	4948.161133
680.368164	4924.050293
679.170898	5004.337402
677.973633	4969.787598
676.775391	5089.675781
675.577148	5098.934082
674.378906	5104.016113
673.179688	5111.180664
671.980469	5082.898926
670.781250	5040.039063
669.581055	5209.756348
668.381836	5266.890625
667.181641	5230.265625
665.980469	5283.203125
664.780273	5367.345215
663.579102	5336.965820
662.377930	5475.162598
661.175781	5363.630371
659.973633	5437.274414
658.771484	5440.178711
657.569336	5374.470703
656.367188	5612.270996
655.164063	5446.802246
653.960938	5518.262695
652.756836	5512.833984
651.552734	5611.242676
650.348633	5618.251465
649.144531	5567.136230
647.939453	5501.517090
646.735352	5568.713867
645.529297	5563.278809
644.324219	5514.295410
643.118164	5494.360840
641.912109	5447.488281
640.706055	5522.907715
639.499023	5469.833496
638.292969	5476.854980
637.084961	5517.007813
635.877930	5532.296387
634.669922	5520.666992
633.461914	5629.074707
632.253906	5518.114258
631.044922	5523.043945
629.836914	5552.788086
628.626953	5640.410645
627.417969	5517.145508
626.208008	5582.001953
624.998047	5504.262695
623.788086	5567.025391
622.577148	5660.737305
621.366211	5717.239746
620.155273	5589.997559
618.944336	5499.961426
617.732422	5663.752441
616.520508	5423.154297
615.308594	5477.582520
614.095703	5540.232422
612.882813	5349.302246
611.669922	5313.028320
610.457031	5233.501953
609.243164	5228.169922
608.029297	5000.416992
606.815430	4900.426758
605.600586	5035.154785
604.385742	4881.692871
603.170898	5057.513672
601.955078	4982.286621
600.740234	4972.906250
599.524414	4768.196289
598.307617	4853.429688
597.091797	4784.483887
595.875000	4914.876953
594.658203	4835.677246
593.440430	4838.664063
592.222656	4866.289063
591.004883	4937.009766
589.787109	4808.621094
588.568359	4885.477051
587.349609	4794.083984
586.130859	4776.565430
584.912109	4822.618164
583.692383	4712.852539
582.472656	4797.838379
581.251953	4821.313965
580.032227	4822.245117
578.811523	4788.357910
577.589844	4877.341309
576.369141	4861.880859
575.147461	4795.261230
573.925781	4818.703125
572.703125	4848.270996
571.481445	4941.226074
570.258789	4915.543457
569.035156	4953.244141
567.812500	5031.802734
566.588867	4948.903320
565.365234	5015.168945
564.140625	5038.514160
562.916992	5031.219727
561.692383	5085.170898
560.466797	4943.166016
559.242188	4995.071289
558.016602	5061.232422
556.791016	5039.662598
555.564453	5042.571289
554.337891	4902.778320
553.111328	5121.755859
551.884766	5090.002930
550.657227	5062.338379
549.429688	4959.329590
548.202148	4998.902832
546.974609	5256.281738
545.746094	5212.321289
544.517578	5131.754395
543.288086	5144.803711
542.058594	5233.099121
540.829102	5276.618652
539.599609	5328.249512
538.370117	5215.229004
537.139648	5380.639160
535.909180	5306.256348
534.677734	5264.404297
533.446289	5267.243164
532.214844	5207.148438
530.983398	5167.376953
529.750977	5178.352051
528.519531	4990.512695
527.286133	4989.354004
526.053711	5042.944336
524.820313	4974.874023
523.586914	4963.585449
522.353516	5009.038086
521.119141	4975.461426
519.884766	5016.838867
518.650391	4981.250977
517.415039	4925.434570
516.179688	4895.955566
514.944336	4852.325684
513.708984	4796.577637
