#Wave		#Intensity
2109.224609	1465.415161
2107.712891	1516.688232
2106.201172	1498.170410
2104.687500	1524.298584
2103.175781	1528.927734
2101.662109	1513.724487
2100.150391	1458.875610
2098.636719	1484.989624
2097.123047	1486.320435
2095.607422	1542.137329
2094.093750	1558.312134
2092.578125	1510.114258
2091.064453	1554.339722
2089.548828	1521.010742
2088.033203	1565.214722
2086.517578	1546.738647
2085.000000	1528.270508
2083.484375	1524.644775
2081.966797	1474.879028
2080.449219	1555.291626
2078.931641	1485.774414
2077.414063	1482.160889
2075.894531	1554.287598
2074.376953	1516.092041
2072.857422	1466.392456
2071.337891	1531.894287
2069.818359	1518.404419
2068.298828	1501.630859
2066.777344	1535.839844
2065.257813	1505.917603
2063.736328	1569.697021
2062.214844	1520.060669
2060.693359	1498.375854
2059.171875	1553.902710
2057.648438	1514.155273
2056.126953	1548.310303
2054.603516	1523.354980
2053.080078	1526.310669
2051.556641	1522.701660
2050.033203	1524.015747
2048.507813	1482.685669
2046.984375	1538.120728
2045.458984	1550.906616
2043.933594	1509.597290
2042.408203	1556.797241
2040.882813	1546.633667
2039.355469	1523.370117
2037.830078	1567.261475
2036.302734	1562.014160
2034.775391	1571.501831
2033.248047	1523.703369
2031.718750	1554.466919
2030.191406	1577.037476
2028.662109	1579.971558
2027.134766	1542.023560
2025.605469	1541.693970
2024.076172	1547.902710
2022.544922	1518.156738
2021.015625	1571.749023
2019.484375	1535.476685
2017.955078	1530.249512
2016.423828	1554.414673
2014.892578	1565.509888
2013.359375	1511.316895
2011.828125	1520.784790
2010.294922	1574.296509
2008.761719	1518.505127
2007.230469	1544.272461
2005.695313	1468.947021
2004.162109	1520.793945
2002.628906	1553.062988
2001.093750	1526.663086
1999.558594	1454.663452
1998.023438	1584.642700
1996.488281	1504.520020
1994.953125	1523.734619
1993.417969	1536.430786
1991.880859	1549.121460
1990.343750	1524.388428
1988.806641	1556.594727
1987.269531	1569.272949
1985.732422	1513.660400
1984.193359	1542.597290
1982.656250	1491.889404
1981.117188	1535.441895
1979.578125	1504.250610
1978.039063	1551.030029
1976.500000	1526.343750
1974.958984	1568.228394
1973.417969	1481.871826
1971.878906	1510.766113
1970.337891	1562.361572
1968.796875	1563.651611
1967.253906	1540.615723
1965.712891	1504.618652
1964.169922	1535.098267
1962.626953	1536.392944
1961.083984	1515.002563
1959.541016	1526.020752
1957.998047	1533.794922
1956.455078	1551.281616
1954.910156	1529.906128
1953.365234	1466.455811
1951.820313	1563.240356
1950.275391	1543.493652
1948.730469	1599.781372
1947.183594	1541.221680
1945.638672	1534.427246
1944.091797	1577.748657
1942.544922	1551.554810
1940.998047	1525.372070
1939.449219	1500.816040
1937.902344	1550.568237
1936.353516	1511.483643
1934.804688	1553.140137
1933.255859	1577.023193
1931.707031	1508.909180
1930.158203	1518.270264
1928.607422	1463.102417
1927.058594	1466.018066
1925.507813	1496.343872
1923.957031	1557.286743
1922.406250	1548.898071
1920.853516	1500.227661
1919.302734	1556.297607
1917.750000	1575.296875
1916.197266	1486.391846
1914.644531	1555.309448
1913.091797	1545.321899
1911.539063	1583.619751
1909.984375	1560.758179
1908.431641	1528.254150
1906.876953	1479.680298
1905.322266	1492.231323
1903.767578	1514.422974
1902.210938	1546.249023
1900.656250	1608.594482
1899.099609	1566.481445
1897.542969	1546.874390
1895.986328	1482.308472
1894.429688	1507.685059
1892.873047	1512.182129
1891.314453	1566.430542
1889.755859	1500.310303
1888.199219	1490.367554
1886.640625	1518.923218
1885.080078	1547.466675
1883.521484	1508.661499
1881.960938	1508.342651
1880.402344	1501.613525
1878.841797	1464.444580
1877.281250	1510.590210
1875.720703	1534.294312
1874.158203	1514.755371
1872.597656	1452.000854
1871.035156	1542.925049
1869.472656	1532.997803
1867.910156	1534.273682
1866.347656	1537.148560
1864.783203	1538.422974
1863.220703	1459.754150
1861.656250	1510.598267
1860.091797	1513.475464
1858.527344	1543.514771
1856.962891	1527.213623
1855.396484	1542.862671
1853.832031	1553.714600
1852.265625	1599.684692
1850.699219	1537.096680
1849.132813	1476.130981
1847.566406	1528.470093
1845.998047	1465.936646
1844.431641	1540.583008
1842.863281	1514.746094
1841.294922	1555.873657
1839.726563	1528.450562
1838.156250	1526.534302
1836.587891	1505.501343
1835.017578	1514.740112
1833.449219	1455.499512
1831.878906	1472.705444
1830.306641	1486.720459
1828.736328	1503.912354
1827.166016	1530.643555
1825.593750	1525.548096
1824.021484	1572.938965
1822.449219	1539.214722
1820.876953	1495.966064
1819.304688	1527.438721
1817.730469	1500.101685
1816.158203	1572.867676
1814.583984	1481.995605
1813.009766	1513.444336
1811.435547	1486.133057
1809.859375	1482.644409
1808.285156	1509.311646
1806.708984	1510.579590
1805.132813	1459.495605
1803.556641	1521.044189
1801.980469	1490.593994
1800.404297	1445.887939
1798.826172	1543.856812
1797.248047	1483.310913
1795.671875	1528.945190
1794.093750	1544.463013
1792.513672	1482.371338
1790.935547	1515.309570
1789.355469	1507.074219
1787.777344	1521.000488
1786.197266	1523.843994
1784.617188	1507.701538
1783.035156	1499.474487
1781.455078	1473.855591
1779.873047	1516.232666
1778.292969	1490.620850
1776.710938	1526.654907
1775.128906	1502.631592
1773.544922	1513.372192
1771.962891	1544.640259
1770.378906	1552.209106
1768.794922	1551.881226
1767.212891	1502.623413
1765.626953	1560.693848
1764.042969	1563.519409
1762.458984	1484.319824
1760.873047	1504.507813
1759.287109	1515.226929
1757.701172	1566.927368
1756.115234	1561.868042
1754.529297	1507.963501
1752.941406	1569.084839
1751.355469	1475.825073
1749.767578	1510.156982
1748.179688	1483.073120
1746.591797	1555.166138
1745.001953	1528.083984
1743.414063	1540.348022
1741.824219	1488.111450
1740.234375	1536.551270
1738.644531	1485.909790
1737.054688	1529.613281
1735.462891	1483.709717
1733.873047	1588.679321
1732.281250	1594.627563
1730.689453	1512.612305
1729.097656	1531.137085
1727.505859	1577.915161
1725.912109	1576.011597
1724.320313	1516.040894
1722.726563	1507.874756
1721.132813	1564.030151
1719.539063	1653.098267
1717.945313	1586.889404
1716.349609	1511.301880
1714.755859	1543.897583
1713.160156	1513.796387
1711.564453	1591.813110
1709.968750	1619.671631
1708.371094	1544.156738
1706.775391	1601.762573
1705.177734	1552.895386
1703.580078	1594.823853
1701.982422	1602.309814
1700.384766	1514.362671
1698.787109	1524.990601
1697.187500	1565.325317
1695.587891	1585.318237
1693.990234	1592.797852
1692.390625	1542.451782
1690.789063	1582.748291
1689.189453	1566.791748
1687.587891	1546.156616
1685.988281	1578.619141
1684.386719	1567.356689
1682.785156	1576.389038
1681.181641	1591.659302
1679.580078	1592.881958
1677.976563	1578.506104
1676.373047	1659.263062
1674.769531	1662.029419
1673.166016	1597.766113
1671.562500	1574.050171
1669.957031	1590.855713
1668.353516	1612.327393
1666.748047	1657.151978
1665.142578	1649.014526
1663.537109	1654.891724
1661.929688	1652.984009
1660.324219	1672.863037
1658.716797	1728.517334
1657.109375	1712.595459
1655.501953	1639.139160
1653.894531	1659.003784
1652.285156	1719.276855
1650.677734	1728.236694
1649.068359	1732.531006
1647.458984	1693.325073
1645.849609	1734.901123
1644.240234	1793.540649
1642.628906	1790.054321
1641.019531	1743.108154
1639.408203	1815.674927
1637.796875	1768.742920
1636.185547	1779.225220
1634.572266	1864.144531
1632.960938	1945.926636
1631.347656	1809.094238
1629.734375	1935.799438
1628.121094	1912.144287
1626.507813	1893.146729
1624.894531	1934.563843
1623.279297	1941.894775
1621.664063	1952.318970
1620.048828	1967.382324
1618.433594	1979.343994
1616.818359	1995.942017
1615.203125	2088.331543
1613.585938	2104.899170
1611.968750	2098.265625
1610.351563	2185.936279
1608.734375	2185.470459
1607.117188	2234.453125
1605.498047	2158.274902
1603.878906	2188.706787
1602.261719	2253.099854
1600.640625	2212.476563
1599.021484	2249.051514
1597.402344	2172.950684
1595.781250	2101.510986
1594.162109	2090.264160
1592.541016	2000.364502
1590.919922	2107.875732
1589.296875	2084.301025
1587.675781	2076.149414
1586.052734	2068.001221
1584.429688	2141.510986
1582.806641	2117.948730
1581.183594	2075.916260
1579.560547	2033.901855
1577.935547	2062.714600
1576.312500	2097.671143
1574.687500	1961.818726
1573.062500	2004.473145
1571.435547	2053.261230
1569.810547	2031.294556
1568.183594	2038.546875
1566.558594	2074.999756
1564.931641	2108.363281
1563.304688	2014.193115
1561.675781	2118.213379
1560.048828	2014.866699
1558.419922	2058.961914
1556.791016	2041.635254
1555.162109	2042.732788
1553.533203	2059.173828
1551.904297	2084.812012
1550.273438	2012.279175
1548.642578	2034.849243
1547.011719	2008.350586
1545.380859	2041.640869
1543.750000	2047.332886
1542.119141	1985.609741
1540.486328	2034.200806
1538.853516	2056.736084
1537.220703	2025.672607
1535.587891	2029.830322
1533.955078	1974.298096
1532.320313	1987.645508
1530.685547	1984.159180
1529.052734	2026.558594
1527.416016	1940.491089
1525.781250	1992.054199
1524.146484	1930.486572
1522.509766	1936.184448
1520.873047	1964.797241
1519.236328	1950.627441
1517.599609	1941.045044
1515.962891	1876.500000
1514.324219	1888.308594
1512.687500	1878.745361
1511.048828	1892.073975
1509.410156	1914.550049
1507.771484	1912.612793
1506.130859	1909.151367
1504.492188	1879.773926
1502.851563	1915.950562
1501.210938	1891.155640
1499.570313	1895.319092
1497.927734	1929.945313
1496.287109	1896.025391
1494.644531	1894.094238
1493.001953	1872.374390
1491.359375	1914.584717
1489.716797	1897.434326
1488.074219	1892.461304
1486.429688	1843.382935
1484.785156	1771.516357
1483.140625	1810.661621
1481.496094	1840.670044
1479.851563	1793.164185
1478.207031	1856.587769
1476.560547	1813.655518
1474.914063	1829.968872
1473.267578	1844.756836
1471.621094	1847.394165
1469.972656	1837.889038
1468.326172	1879.977173
1466.677734	1837.094604
1465.029297	1756.313354
1463.380859	1790.809570
1461.732422	1801.034424
1460.082031	1841.568481
1458.431641	1779.039917
1456.783203	1743.809082
1455.132813	1767.666870
1453.480469	1829.373901
1451.830078	1757.817139
1450.177734	1831.609009
1448.527344	1737.381470
1446.875000	1779.370972
1445.220703	1777.472656
1443.568359	1819.434937
1441.916016	1744.948120
1440.261719	1758.175537
1438.607422	1685.245605
1436.953125	1807.279297
1435.298828	1749.477661
1433.642578	1758.160645
1431.988281	1757.779053
1430.332031	1672.848999
1428.675781	1716.260132
1427.019531	1715.887451
1425.361328	1650.635864
1423.705078	1635.192383
1422.046875	1633.328857
1420.388672	1676.700684
1418.730469	1644.678711
1417.072266	1662.406982
1415.412109	1680.127563
1413.753906	1627.034058
1412.093750	1635.717041
1410.433594	1635.361084
1408.773438	1618.444214
1407.111328	1609.060547
1405.451172	1665.895264
1403.789063	1618.891479
1402.126953	1708.791870
1400.464844	1706.915527
1398.802734	1667.450928
1397.138672	1659.571167
1395.474609	1648.688965
1393.812500	1621.282837
1392.146484	1653.978760
1390.482422	1703.181274
1388.818359	1653.256836
1387.152344	1625.873169
1385.486328	1678.051025
1383.820313	1635.667480
1382.154297	1618.807007
1380.488281	1712.950562
1378.820313	1675.085571
1377.154297	1649.231323
1375.486328	1614.394287
1373.818359	1656.003296
1372.148438	1663.132690
1370.480469	1628.315063
1368.810547	1650.423706
1367.140625	1659.046509
1365.470703	1660.180298
1363.800781	1688.253784
1362.130859	1631.022583
1360.458984	1641.137451
1358.787109	1700.605713
1357.115234	1692.756226
1355.443359	1604.177856
1353.771484	1665.109253
1352.097656	1633.362061
1350.423828	1634.497803
1348.751953	1614.720703
1347.076172	1633.780640
1345.402344	1640.887329
1343.728516	1627.092407
1342.052734	1673.000122
1340.376953	1702.474365
1338.701172	1667.789917
1337.025391	1706.200684
1335.347656	1758.014404
1333.671875	1712.904541
1331.994141	1721.470581
1330.316406	1664.467285
1328.638672	1725.182739
1326.960938	1693.524414
1325.281250	1737.825806
1323.601563	1770.197144
1321.921875	1723.664307
1320.242188	1721.796631
1318.562500	1824.077515
1316.880859	1752.275513
1315.201172	1771.222656
1313.519531	1790.161133
1311.837891	1699.088867
1310.154297	1738.841309
1308.472656	1707.254639
1306.789063	1700.935913
1305.105469	1762.939087
1303.421875	1747.701172
1301.738281	1782.944580
1300.054688	1694.981689
1298.369141	1651.574341
1296.683594	1729.838501
1294.998047	1689.408813
1293.312500	1648.996704
1291.626953	1716.830933
1289.939453	1657.161133
1288.253906	1692.360840
1286.566406	1604.572021
1284.878906	1620.510986
1283.189453	1587.571533
1281.501953	1593.142456
1279.812500	1603.151733
1278.123047	1577.637207
1276.433594	1566.930298
1274.744141	1581.376099
1273.052734	1572.151733
1271.363281	1551.102051
1269.671875	1571.454590
1267.980469	1563.716064
1266.289063	1561.891479
1264.595703	1508.360840
1262.904297	1573.014404
1261.210938	1546.084839
1259.517578	1547.217896
1257.824219	1520.305786
1256.128906	1477.172852
1254.435547	1525.531738
1252.740234	1517.817383
1251.044922	1591.215576
1249.349609	1499.449951
1247.652344	1502.064453
1245.957031	1506.151489
1244.259766	1504.342896
1242.562500	1531.996460
1240.865234	1562.583008
1239.167969	1516.590088
1237.468750	1504.475586
1235.769531	1589.502563
1234.072266	1555.305420
1232.371094	1529.949951
1230.671875	1545.787354
1228.972656	1527.797241
1227.271484	1567.149658
1225.570313	1534.464600
1223.869141	1520.896973
1222.167969	1530.841431
1220.464844	1556.938232
1218.763672	1522.815430
1217.060547	1560.647339
1215.357422	1514.796021
1213.654297	1514.457520
1211.949219	1511.184570
1210.246094	1547.517700
1208.541016	1575.035400
1206.835938	1587.878784
1205.130859	1610.977173
1203.423828	1598.892456
1201.718750	1495.970459
1200.011719	1504.424683
1198.304688	1477.725952
1196.597656	1494.965576
1194.888672	1510.733398
1193.181641	1450.388794
1191.472656	1485.181274
1189.763672	1474.607910
1188.054688	1502.066162
1186.343750	1529.511963
1184.634766	1524.782959
1182.923828	1517.132813
1181.212891	1510.947144
1179.501953	1615.795288
1177.791016	1562.850464
1176.078125	1581.483032
1174.365234	1503.750244
1172.652344	1501.952637
1170.939453	1519.126465
1169.226563	1475.015869
1167.511719	1489.270508
1165.798828	1484.560547
1164.083984	1421.533203
1162.369141	1440.162842
1160.652344	1406.320068
1158.937500	1443.885376
1157.220703	1472.693604
1155.503906	1422.846191
1153.787109	1421.069458
1152.070313	1436.761719
1150.351563	1445.170044
1148.632813	1434.658936
1146.916016	1467.793457
1145.195313	1420.922363
1143.476563	1433.688110
1141.757813	1366.493530
1140.037109	1415.600220
1138.316406	1393.484619
1136.595703	1397.528076
1134.875000	1416.093628
1133.152344	1379.471680
1131.429688	1418.357056
1129.708984	1428.196411
1127.984375	1465.601685
1126.261719	1475.425537
1124.539063	1393.867432
1122.814453	1463.157104
1121.089844	1394.686401
1119.365234	1413.213379
1117.640625	1362.174194
1115.914063	1379.251099
1114.187500	1363.005493
1112.462891	1361.248535
1110.734375	1340.670654
1109.007813	1376.553589
1107.281250	1396.501587
1105.552734	1375.929321
1103.824219	1351.026733
1102.095703	1388.320435
1100.367188	1383.667847
1098.636719	1389.135742
1096.908203	1357.026245
1095.177734	1369.721680
1093.447266	1408.412598
1091.714844	1389.317993
1089.984375	1368.787964
1088.251953	1378.581543
1086.519531	1407.132324
1084.787109	1354.868408
1083.054688	1402.164551
1081.320313	1384.538696
1079.585938	1397.200684
1077.851563	1376.700562
1076.117188	1409.535522
1074.382813	1389.041748
1072.648438	1345.507690
1070.912109	1420.094482
1069.175781	1382.332520
1067.439453	1363.302612
1065.701172	1390.337891
1063.964844	1371.314453
1062.226563	1396.896729
1060.488281	1419.590454
1058.750000	1354.558228
1057.011719	1394.502686
1055.271484	1388.435059
1053.531250	1385.243896
1051.791016	1359.067871
1050.050781	1378.865723
1048.310547	1404.398315
1046.568359	1348.086426
1044.826172	1395.144165
1043.083984	1358.949951
1041.341797	1380.159180
1039.599609	1398.489868
1037.855469	1368.055420
1036.113281	1402.150757
1034.369141	1394.662964
1032.623047	1394.343506
1030.878906	1371.100708
1029.132813	1383.677979
1027.386719	1399.113403
1025.640625	1443.176025
1023.894531	1411.354492
1022.148438	1405.306519
1020.400391	1426.445190
1018.652344	1368.901489
1016.904297	1381.458008
1015.156250	1373.992188
1013.406250	1380.823853
1011.658203	1287.615479
1009.908203	1337.326538
1008.158203	1349.875244
1006.408203	1330.999512
1004.656250	1317.843506
1002.904297	1338.952393
1001.152344	1371.468384
999.400391	1376.860107
997.648438	1376.543335
995.896484	1440.402954
994.142578	1343.116089
992.388672	1334.254028
990.634766	1346.773193
988.878906	1340.763672
987.125000	1306.266724
985.369141	1368.629272
983.613281	1348.380127
981.857422	1322.445923
980.099609	1356.297607
978.343750	1324.681885
976.585938	1358.516968
974.828125	1386.647583
973.070313	1332.296387
971.310547	1319.194946
969.552734	1352.999634
967.792969	1338.478271
966.033203	1368.000977
964.273438	1315.136230
962.511719	1350.329956
960.750000	1355.696167
958.990234	1355.382813
957.226563	1352.231567
955.464844	1307.942505
953.703125	1301.966919
951.939453	1304.501465
950.175781	1390.673706
948.412109	1308.149536
946.648438	1384.362183
944.882813	1313.210327
943.117188	1298.743286
941.351563	1325.345703
939.585938	1276.906860
937.820313	1326.146851
936.052734	1324.424438
934.285156	1319.873413
932.517578	1343.610962
930.750000	1302.293335
928.982422	1331.678223
927.212891	1327.129272
925.443359	1270.300537
923.673828	1296.846802
921.904297	1355.864746
920.132813	1354.137817
918.361328	1331.235962
916.591797	1325.281250
914.818359	1332.028442
913.046875	1289.397339
911.275391	1308.843018
909.501953	1316.999023
907.728516	1319.512207
905.955078	1286.788940
904.179688	1337.216431
902.406250	1356.627686
900.630859	1295.749756
898.855469	1322.201904
897.080078	1289.515381
895.302734	1339.882935
893.525391	1321.278320
891.750000	1374.428223
889.970703	1320.662598
888.193359	1324.573120
886.416016	1355.192017
884.636719	1298.657104
882.857422	1295.543945
881.078125	1380.935547
879.296875	1370.781982
877.517578	1350.803833
875.736328	1280.296875
873.955078	1282.804932
872.173828	1323.197632
870.390625	1313.068604
868.609375	1269.283691
866.826172	1281.606934
865.042969	1267.288818
863.259766	1302.031128
861.474609	1279.307373
859.689453	1321.034790
857.904297	1303.919189
856.119141	1316.216309
854.333984	1258.512329
852.546875	1351.989380
850.761719	1320.889526
848.974609	1277.213867
847.185547	1268.523315
845.398438	1257.040161
843.609375	1318.255005
841.822266	1295.584473
840.031250	1289.691772
838.242188	1283.801758
836.453125	1265.344727
834.662109	1319.503784
832.871094	1271.731323
831.080078	1282.598267
829.289063	1304.622559
827.496094	1245.726929
825.703125	1255.197266
823.910156	1275.817749
822.117188	1243.456055
820.324219	1283.580933
818.529297	1269.346069
816.734375	1256.510742
814.939453	1261.786377
813.144531	1278.198486
811.347656	1231.960571
809.550781	1277.597778
807.755859	1239.729980
805.957031	1268.650879
804.160156	1254.445190
802.361328	1213.828369
800.564453	1228.833740
798.765625	1291.083740
796.964844	1235.202759
795.166016	1252.970459
793.365234	1261.008179
791.564453	1232.942383
789.763672	1225.711426
787.962891	1239.300781
786.160156	1202.934692
784.359375	1234.555664
782.556641	1238.425171
780.751953	1256.157715
778.949219	1230.910767
777.144531	1218.148071
775.339844	1237.258057
773.535156	1192.640503
771.730469	1225.595825
769.925781	1211.461426
768.119141	1243.012207
766.312500	1213.657593
764.505859	1187.083862
762.697266	1244.898926
760.890625	1186.523438
759.082031	1256.754272
757.273438	1205.314575
755.464844	1238.195923
753.654297	1236.521851
751.845703	1283.192749
750.035156	1240.080444
748.224609	1279.825073
746.412109	1275.381836
744.601563	1276.460327
742.789063	1280.297363
740.976563	1281.374023
739.164063	1297.618652
737.349609	1247.680298
735.537109	1299.761475
733.722656	1307.722046
731.908203	1312.923218
730.091797	1400.762817
728.277344	1346.727417
726.460938	1323.004761
724.644531	1284.153076
722.828125	1281.096924
721.009766	1235.394897
719.193359	1254.357666
717.375000	1212.808594
715.556641	1191.900146
713.736328	1263.087280
711.917969	1185.838867
710.097656	1233.639526
708.277344	1204.504883
706.457031	1238.547119
704.636719	1186.087524
702.814453	1220.117676
700.992188	1173.175659
699.169922	1170.153809
697.347656	1189.076904
695.523438	1210.733276
693.699219	1166.579346
691.875000	1212.899658
690.050781	1182.467773
688.226563	1178.077393
686.400391	1194.232056
684.574219	1204.902222
682.748047	1219.673706
680.921875	1211.172607
679.095703	1202.675537
677.267578	1185.974854
675.439453	1233.558472
673.611328	1233.265259
671.781250	1191.964233
669.953125	1214.913208
668.123047	1285.670898
666.292969	1207.505737
664.460938	1276.865845
662.630859	1305.233643
660.798828	1322.667847
658.966797	1333.270508
657.134766	1337.046265
655.302734	1353.096313
653.468750	1335.046387
651.634766	1327.911865
649.800781	1305.787231
647.966797	1366.798340
646.130859	1301.078491
644.294922	1302.130737
642.458984	1250.074707
640.623047	1257.945435
638.787109	1269.895630
636.949219	1253.263916
635.111328	1227.117065
633.273438	1207.783081
631.435547	1166.701538
629.595703	1203.129028
627.757813	1186.532593
625.917969	1218.861450
624.076172	1177.816040
622.236328	1207.415039
620.394531	1194.906494
618.552734	1190.549072
616.710938	1184.836304
614.869141	1172.341797
613.025391	1178.844971
611.183594	1150.083008
609.339844	1182.350342
607.494141	1145.467529
605.650391	1150.615234
603.804688	1142.211060
601.958984	1143.293091
600.113281	1151.145996
598.267578	1138.685425
596.419922	1149.242798
594.572266	1163.854980
592.724609	1163.577026
590.876953	1128.129761
589.027344	1104.870361
587.179688	1143.815308
585.330078	1143.542114
583.480469	1125.701050
581.628906	1101.113037
579.779297	1153.528687
577.927734	1122.193604
576.076172	1065.221680
574.222656	1113.558716
572.371094	1089.002686
570.517578	1113.026611
568.664063	1120.853394
566.810547	1140.812622
564.955078	1109.532349
563.101563	1074.223389
561.246094	1042.973877
559.390625	1079.098633
557.533203	1104.431030
555.677734	1125.711670
553.820313	1113.326416
551.962891	1068.645508
550.105469	1112.793945
548.246094	1069.479614
546.386719	1055.774414
544.527344	1106.617188
542.667969	1074.089355
540.808594	1077.864380
538.947266	1095.073853
537.085938	1084.065186
535.224609	1121.410034
533.363281	1084.889160
531.500000	1075.232910
529.638672	1112.552856
527.775391	1143.146118
525.910156	1122.751465
524.046875	1216.358276
522.181641	1280.423462
520.316406	1473.139771
518.451172	1448.665039
516.585938	1256.727539
514.718750	1174.718628
512.851563	1143.636841
510.984375	1121.941772
509.117188	1086.871704
507.250000	1094.640625
505.380859	1105.081421
503.511719	1091.441284
501.642578	1084.493774
499.771484	1074.875610
497.902344	1082.637695
496.031250	1082.378418
494.160156	1031.353027
492.287109	1040.455322
490.416016	1050.888550
488.542969	1070.661743
486.669922	1027.695801
484.796875	1044.796143
482.921875	1072.560425
481.046875	1054.965210
479.171875	1052.045654
477.296875	1054.459717
475.421875	1067.534546
473.544922	1036.632813
471.667969	1076.347900
469.791016	1069.430908
467.914063	1039.882202
466.035156	1024.990356
464.156250	1095.279053
462.277344	1041.795898
460.398438	1046.866943
458.519531	1083.852783
456.638672	995.841919
454.757813	1048.772949
452.876953	1024.600952
450.994141	1019.041016
449.113281	1014.811890
447.230469	1014.568726
445.347656	1052.827393
443.462891	1022.046448
441.580078	1012.512390
439.695313	980.428955
437.810547	1002.742432
435.925781	994.545715
434.039063	985.027161
432.152344	1035.157227
430.267578	1009.732056
428.378906	993.592590
426.492188	1037.062012
424.603516	987.819763
422.714844	1040.536499
420.826172	1011.169678
418.937500	995.048889
417.046875	1018.622314
415.158203	978.701111
413.265625	1023.423157
411.375000	1019.212036
409.484375	1008.394836
407.591797	1004.189270
405.699219	997.343689
403.806641	960.125977
401.912109	1027.233887
400.019531	1025.667603
