#Wave		#Intensity
2109.224609	12355.136719
2107.712891	12451.067383
2106.201172	12481.446289
2104.687500	12252.251953
2103.175781	12378.530273
2101.662109	12296.533203
2100.150391	12165.006836
2098.636719	12223.496094
2097.123047	12387.655273
2095.607422	12089.432617
2094.093750	12169.361328
2092.578125	12353.230469
2091.064453	12079.958984
2089.548828	12077.353516
2088.033203	12018.671875
2086.517578	12156.244141
2085.000000	12094.274414
2083.484375	12203.750977
2081.966797	12079.176758
2080.449219	11964.541992
2078.931641	12115.156250
2077.414063	12143.838867
2075.894531	12113.235352
2074.376953	12104.044922
2072.857422	12020.797852
2071.337891	11881.642578
2069.818359	12088.012695
2068.298828	12055.809570
2066.777344	11778.609375
2065.257813	11951.988281
2063.736328	11870.525391
2062.214844	11945.211914
2060.693359	12064.225586
2059.171875	11954.867188
2057.648438	12004.853516
2056.126953	12018.697266
2054.603516	12034.175781
2053.080078	11801.827148
2051.556641	11984.711914
2050.033203	11949.333008
2048.507813	12027.138672
2046.984375	11937.653320
2045.458984	11990.835938
2043.933594	12012.854492
2042.408203	11974.229492
2040.882813	11958.558594
2039.355469	12011.691406
2037.830078	12025.498047
2036.302734	11887.025391
2034.775391	11967.968750
2033.248047	11998.141602
2031.718750	12026.665039
2030.191406	11973.378906
2028.662109	11769.643555
2027.134766	11958.449219
2025.605469	12047.447266
2024.076172	12057.949219
2022.544922	11864.173828
2021.015625	12077.306641
2019.484375	12077.994141
2017.955078	11910.468750
2016.423828	11984.666992
2014.892578	11753.567383
2013.359375	11961.599609
2011.828125	12012.894531
2010.294922	12085.375977
2008.761719	12084.429688
2007.230469	12031.300781
2005.695313	12004.280273
2004.162109	12024.541992
2002.628906	12000.792969
2001.093750	11959.131836
1999.558594	12042.918945
1998.023438	12072.925781
1996.488281	12045.929688
1994.953125	11836.618164
1993.417969	12052.192383
1991.880859	12121.224609
1990.343750	12232.526367
1988.806641	12122.571289
1987.269531	12149.262695
1985.732422	12271.867188
1984.193359	12249.750000
1982.656250	12250.394531
1981.117188	12475.261719
1979.578125	12527.840820
1978.039063	12375.758789
1976.500000	12379.622070
1974.958984	12299.066406
1973.417969	12246.136719
1971.878906	12316.557617
1970.337891	12229.576172
1968.796875	12192.914063
1967.253906	12101.130859
1965.712891	12049.919922
1964.169922	12340.763672
1962.626953	11984.836914
1961.083984	12199.416016
1959.541016	12136.886719
1957.998047	12297.893555
1956.455078	12178.694336
1954.910156	12213.345703
1953.365234	12052.130859
1951.820313	12125.631836
1950.275391	12127.913086
1948.730469	12304.890625
1947.183594	12184.222656
1945.638672	12188.106445
1944.091797	12072.363281
1942.544922	12195.867188
1940.998047	12015.537109
1939.449219	12038.837891
1937.902344	12075.050781
1936.353516	12159.692383
1934.804688	12107.066406
1933.255859	12080.288086
1931.707031	12145.508789
1930.158203	12104.211914
1928.607422	11832.255859
1927.058594	12000.704102
1925.507813	12061.047852
1923.957031	11998.845703
1922.406250	12141.362305
1920.853516	12087.226563
1919.302734	11975.114258
1917.750000	12172.309570
1916.197266	11863.757813
1914.644531	12015.811523
1913.091797	12090.534180
1911.539063	12081.538086
1909.984375	12033.928711
1908.431641	12029.773438
1906.876953	11962.893555
1905.322266	12085.787109
1903.767578	11912.817383
1902.210938	11992.270508
1900.656250	11874.030273
1899.099609	11971.130859
1897.542969	11971.811523
1895.986328	12009.428711
1894.429688	11949.085938
1892.873047	11916.058594
1891.314453	11966.502930
1889.755859	11811.534180
1888.199219	11942.191406
1886.640625	11982.972656
1885.080078	12004.493164
1883.521484	11982.716797
1881.960938	11900.038086
1880.402344	11927.971680
1878.841797	11886.996094
1877.281250	12009.431641
1875.720703	12205.487305
1874.158203	11802.602539
1872.597656	11728.068359
1871.035156	12039.296875
1869.472656	11814.324219
1867.910156	11883.822266
1866.347656	11786.938477
1864.783203	11862.808594
1863.220703	11873.092773
1861.656250	12016.049805
1860.091797	11933.602539
1858.527344	11867.167969
1856.962891	11883.831055
1855.396484	11967.567383
1853.832031	11985.797852
1852.265625	11699.090820
1850.699219	12003.081055
1849.132813	12000.545898
1847.566406	12141.604492
1845.998047	12124.684570
1844.431641	12082.252930
1842.863281	12291.765625
1841.294922	12016.573242
1839.726563	12029.973633
1838.156250	12131.007813
1836.587891	12282.978516
1835.017578	12172.075195
1833.449219	12070.773438
1831.878906	12031.605469
1830.306641	12060.900391
1828.736328	12174.528320
1827.166016	12210.144531
1825.593750	12220.291992
1824.021484	11987.098633
1822.449219	12149.937500
1820.876953	12050.396484
1819.304688	12348.253906
1817.730469	12275.725586
1816.158203	12412.944336
1814.583984	12369.024414
1813.009766	12118.670898
1811.435547	12300.291016
1809.859375	11996.084961
1808.285156	12126.866211
1806.708984	12206.816406
1805.132813	12400.953125
1803.556641	12239.727539
1801.980469	12146.755859
1800.404297	12148.946289
1798.826172	12208.198242
1797.248047	12173.925781
1795.671875	12120.654297
1794.093750	12273.333008
1792.513672	12208.975586
1790.935547	12296.650391
1789.355469	12216.483398
1787.777344	12256.636719
1786.197266	12334.750000
1784.617188	12167.610352
1783.035156	12356.428711
1781.455078	12168.796875
1779.873047	12294.291992
1778.292969	12408.667969
1776.710938	12309.643555
1775.128906	12262.800781
1773.544922	12317.080078
1771.962891	12286.049805
1770.378906	12228.186523
1768.794922	12314.011719
1767.212891	12382.437500
1765.626953	12286.715820
1764.042969	12381.938477
1762.458984	12354.083984
1760.873047	12307.315430
1759.287109	12402.470703
1757.701172	12421.919922
1756.115234	12414.566406
1754.529297	12434.001953
1752.941406	12499.115234
1751.355469	12438.196289
1749.767578	12355.256836
1748.179688	12566.761719
1746.591797	12477.532227
1745.001953	12460.730469
1743.414063	12377.853516
1741.824219	12549.844727
1740.234375	12503.155273
1738.644531	12653.033203
1737.054688	12662.933594
1735.462891	12682.259766
1733.873047	12739.291016
1732.281250	12739.738281
1730.689453	12790.448242
1729.097656	12828.573242
1727.505859	12825.859375
1725.912109	13035.059570
1724.320313	12869.083984
1722.726563	12985.610352
1721.132813	13031.493164
1719.539063	13356.532227
1717.945313	13123.198242
1716.349609	13372.827148
1714.755859	13200.716797
1713.160156	13216.727539
1711.564453	13461.474609
1709.968750	13259.690430
1708.371094	13778.388672
1706.775391	13636.119141
1705.177734	13681.759766
1703.580078	13783.722656
1701.982422	13668.140625
1700.384766	13816.995117
1698.787109	13965.785156
1697.187500	14134.840820
1695.587891	14313.204102
1693.990234	14408.646484
1692.390625	14407.156250
1690.789063	14555.659180
1689.189453	14580.692383
1687.587891	14574.477539
1685.988281	14585.441406
1684.386719	14610.449219
1682.785156	14624.520508
1681.181641	15058.345703
1679.580078	15278.250000
1677.976563	15373.276367
1676.373047	15451.107422
1674.769531	15697.290039
1673.166016	16063.395508
1671.562500	16334.277344
1669.957031	16612.833984
1668.353516	16808.707031
1666.748047	17428.130859
1665.142578	17429.101563
1663.537109	17623.119141
1661.929688	17855.962891
1660.324219	17707.449219
1658.716797	18010.185547
1657.109375	18175.910156
1655.501953	18187.601563
1653.894531	18340.777344
1652.285156	18681.980469
1650.677734	19024.589844
1649.068359	19297.132813
1647.458984	19672.087891
1645.849609	19917.968750
1644.240234	20037.962891
1642.628906	20455.990234
1641.019531	21044.578125
1639.408203	21355.130859
1637.796875	21555.390625
1636.185547	22019.269531
1634.572266	22361.980469
1632.960938	22602.208984
1631.347656	23274.841797
1629.734375	23254.390625
1628.121094	23763.894531
1626.507813	24457.535156
1624.894531	24994.441406
1623.279297	25331.351563
1621.664063	26078.398438
1620.048828	26962.888672
1618.433594	27467.845703
1616.818359	27984.964844
1615.203125	28738.537109
1613.585938	29852.140625
1611.968750	30428.718750
1610.351563	31173.552734
1608.734375	31789.783203
1607.117188	32605.089844
1605.498047	32992.097656
1603.878906	33091.640625
1602.261719	33436.679688
1600.640625	33807.816406
1599.021484	33638.527344
1597.402344	33609.742188
1595.781250	33577.886719
1594.162109	33749.667969
1592.541016	33406.242188
1590.919922	33800.023438
1589.296875	33476.773438
1587.675781	33452.671875
1586.052734	33884.707031
1584.429688	33741.894531
1582.806641	33819.406250
1581.183594	33641.242188
1579.560547	33412.339844
1577.935547	33685.363281
1576.312500	33655.078125
1574.687500	33775.593750
1573.062500	33379.171875
1571.435547	33590.433594
1569.810547	34058.398438
1568.183594	33782.074219
1566.558594	33661.105469
1564.931641	33655.441406
1563.304688	33224.199219
1561.675781	33700.945313
1560.048828	33171.585938
1558.419922	33350.269531
1556.791016	33427.554688
1555.162109	33520.156250
1553.533203	33443.929688
1551.904297	33676.082031
1550.273438	33299.230469
1548.642578	32982.343750
1547.011719	32950.746094
1545.380859	33283.957031
1543.750000	32841.609375
1542.119141	32463.798828
1540.486328	32390.970703
1538.853516	32422.310547
1537.220703	32204.060547
1535.587891	31969.062500
1533.955078	31380.625000
1532.320313	30960.753906
1530.685547	30233.568359
1529.052734	30009.890625
1527.416016	29053.845703
1525.781250	28728.082031
1524.146484	28000.460938
1522.509766	27540.580078
1520.873047	27200.066406
1519.236328	27085.767578
1517.599609	26896.683594
1515.962891	26860.363281
1514.324219	26888.171875
1512.687500	26769.451172
1511.048828	26518.027344
1509.410156	26397.906250
1507.771484	26337.318359
1506.130859	25973.302734
1504.492188	25658.228516
1502.851563	25244.210938
1501.210938	25118.386719
1499.570313	25108.406250
1497.927734	24492.177734
1496.287109	24591.982422
1494.644531	24722.193359
1493.001953	24655.974609
1491.359375	24597.392578
1489.716797	24401.888672
1488.074219	24235.371094
1486.429688	24151.054688
1484.785156	24372.416016
1483.140625	24206.005859
1481.496094	24010.787109
1479.851563	24318.648438
1478.207031	23927.496094
1476.560547	23658.027344
1474.914063	23586.097656
1473.267578	23789.011719
1471.621094	23847.626953
1469.972656	23888.003906
1468.326172	23585.443359
1466.677734	23924.705078
1465.029297	23409.927734
1463.380859	23462.486328
1461.732422	23707.554688
1460.082031	23517.511719
1458.431641	23742.757813
1456.783203	23557.330078
1455.132813	23421.964844
1453.480469	23147.333984
1451.830078	22939.437500
1450.177734	23072.218750
1448.527344	23030.898438
1446.875000	22895.783203
1445.220703	23337.080078
1443.568359	23194.392578
1441.916016	23543.191406
1440.261719	23651.468750
1438.607422	23931.998047
1436.953125	24294.003906
1435.298828	24716.281250
1433.642578	25034.154297
1431.988281	24753.876953
1430.332031	24114.390625
1428.675781	23260.835938
1427.019531	22875.480469
1425.361328	22244.355469
1423.705078	21952.910156
1422.046875	21904.402344
1420.388672	21674.974609
1418.730469	21600.917969
1417.072266	21627.871094
1415.412109	21615.630859
1413.753906	21805.269531
1412.093750	21770.400391
1410.433594	21883.119141
1408.773438	22099.667969
1407.111328	22451.587891
1405.451172	22794.324219
1403.789063	23391.175781
1402.126953	23846.371094
1400.464844	24442.730469
1398.802734	24527.615234
1397.138672	24818.406250
1395.474609	24909.179688
1393.812500	24452.972656
1392.146484	24988.449219
1390.482422	24715.654297
1388.818359	24968.533203
1387.152344	25033.642578
1385.486328	25388.402344
1383.820313	25258.306641
1382.154297	25938.419922
1380.488281	25844.253906
1378.820313	25783.121094
1377.154297	26051.857422
1375.486328	26022.177734
1373.818359	26053.953125
1372.148438	25747.091797
1370.480469	25852.310547
1368.810547	25419.820313
1367.140625	25331.904297
1365.470703	25064.382813
1363.800781	24765.544922
1362.130859	24547.638672
1360.458984	24304.394531
1358.787109	24554.832031
1357.115234	24574.873047
1355.443359	24225.626953
1353.771484	24411.638672
1352.097656	24773.902344
1350.423828	25732.134766
1348.751953	26438.998047
1347.076172	27497.992188
1345.402344	28351.966797
1343.728516	29050.316406
1342.052734	29673.738281
1340.376953	29938.781250
1338.701172	30329.011719
1337.025391	30823.470703
1335.347656	31190.962891
1333.671875	31740.166016
1331.994141	31628.855469
1330.316406	31814.125000
1328.638672	31774.351563
1326.960938	31444.144531
1325.281250	31093.234375
1323.601563	30696.320313
1321.921875	30238.550781
1320.242188	29685.738281
1318.562500	29121.263672
1316.880859	28472.246094
1315.201172	27893.410156
1313.519531	27218.181641
1311.837891	26975.824219
1310.154297	26677.095703
1308.472656	26396.326172
1306.789063	26192.925781
1305.105469	25866.341797
1303.421875	25487.927734
1301.738281	25243.287109
1300.054688	24543.097656
1298.369141	24488.707031
1296.683594	23869.099609
1294.998047	23697.703125
1293.312500	23287.630859
1291.626953	23125.328125
1289.939453	23277.332031
1288.253906	23100.281250
1286.566406	23102.578125
1284.878906	22728.628906
1283.189453	22695.458984
1281.501953	22757.062500
1279.812500	22954.822266
1278.123047	22744.023438
1276.433594	22975.726563
1274.744141	22634.832031
1273.052734	22752.570313
1271.363281	22849.552734
1269.671875	22192.546875
1267.980469	21860.988281
1266.289063	21831.017578
1264.595703	21443.542969
1262.904297	21375.271484
1261.210938	21312.935547
1259.517578	21200.427734
1257.824219	21071.732422
1256.128906	20878.162109
1254.435547	20913.357422
1252.740234	20930.835938
1251.044922	20731.519531
1249.349609	20695.947266
1247.652344	20560.152344
1245.957031	20676.423828
1244.259766	20521.535156
1242.562500	20674.585938
1240.865234	20711.220703
1239.167969	20366.480469
1237.468750	19985.087891
1235.769531	19606.808594
1234.072266	19530.337891
1232.371094	19468.613281
1230.671875	19199.531250
1228.972656	19105.552734
1227.271484	19151.275391
1225.570313	18979.445313
1223.869141	18735.687500
1222.167969	18587.529297
1220.464844	18351.308594
1218.763672	18257.632813
1217.060547	18281.449219
1215.357422	18250.943359
1213.654297	18039.947266
1211.949219	18226.646484
1210.246094	18378.056641
1208.541016	18206.763672
1206.835938	18210.021484
1205.130859	17983.138672
1203.423828	17785.664063
1201.718750	17768.494141
1200.011719	17676.625000
1198.304688	17447.125000
1196.597656	17485.679688
1194.888672	17159.705078
1193.181641	17214.402344
1191.472656	17361.255859
1189.763672	16953.601563
1188.054688	17267.179688
1186.343750	17219.437500
1184.634766	17206.802734
1182.923828	17217.556641
1181.212891	17162.546875
1179.501953	16878.193359
1177.791016	16792.609375
1176.078125	16695.378906
1174.365234	16570.451172
1172.652344	16496.666016
1170.939453	16673.910156
1169.226563	16697.880859
1167.511719	16853.117188
1165.798828	16840.576172
1164.083984	17196.908203
1162.369141	17303.818359
1160.652344	17377.162109
1158.937500	17121.187500
1157.220703	16885.720703
1155.503906	16845.507813
1153.787109	16652.429688
1152.070313	16596.271484
1150.351563	16361.128906
1148.632813	16632.439453
1146.916016	16493.400391
1145.195313	16485.316406
1143.476563	16656.082031
1141.757813	16522.941406
1140.037109	16115.169922
1138.316406	15783.138672
1136.595703	15496.291016
1134.875000	15369.335938
1133.152344	15243.888672
1131.429688	15031.391602
1129.708984	14961.227539
1127.984375	14699.549805
1126.261719	14683.167969
1124.539063	14681.296875
1122.814453	14898.390625
1121.089844	15244.415039
1119.365234	15503.313477
1117.640625	15940.335938
1115.914063	16045.384766
1114.187500	16299.576172
1112.462891	15566.021484
1110.734375	15077.476563
1109.007813	14299.656250
1107.281250	13999.748047
1105.552734	13608.823242
1103.824219	13245.558594
1102.095703	12983.688477
1100.367188	13019.779297
1098.636719	12859.262695
1096.908203	12862.123047
1095.177734	12701.711914
1093.447266	12773.941406
1091.714844	12495.196289
1089.984375	12502.463867
1088.251953	12477.967773
1086.519531	12411.628906
1084.787109	12346.761719
1083.054688	12442.045898
1081.320313	12188.267578
1079.585938	12061.489258
1077.851563	12195.692383
1076.117188	12031.496094
1074.382813	12100.800781
1072.648438	11971.272461
1070.912109	11897.971680
1069.175781	11961.496094
1067.439453	11839.282227
1065.701172	11770.375977
1063.964844	11586.383789
1062.226563	11537.705078
1060.488281	11631.437500
1058.750000	11549.694336
1057.011719	11515.429688
1055.271484	11659.404297
1053.531250	11561.901367
1051.791016	11675.627930
1050.050781	11477.621094
1048.310547	11506.588867
1046.568359	11511.136719
1044.826172	11749.640625
1043.083984	11616.367188
1041.341797	11795.914063
1039.599609	11798.952148
1037.855469	11601.224609
1036.113281	11902.510742
1034.369141	11641.780273
1032.623047	11713.631836
1030.878906	11699.486328
1029.132813	11745.506836
1027.386719	11821.577148
1025.640625	11944.858398
1023.894531	11753.175781
1022.148438	12036.693359
1020.400391	11970.979492
1018.652344	12081.235352
1016.904297	11978.356445
1015.156250	12192.929688
1013.406250	11769.878906
1011.658203	11870.071289
1009.908203	11523.010742
1008.158203	11824.621094
1006.408203	11754.782227
1004.656250	11787.775391
1002.904297	11883.559570
1001.152344	12104.885742
999.400391	12224.805664
997.648438	12230.551758
995.896484	12250.555664
994.142578	12478.717773
992.388672	12520.035156
990.634766	12862.040039
988.878906	12985.886719
987.125000	13079.761719
985.369141	12968.510742
983.613281	12925.654297
981.857422	12897.050781
980.099609	13030.703125
978.343750	12970.784180
976.585938	12562.370117
974.828125	11955.036133
973.070313	11568.371094
971.310547	11373.791992
969.552734	11274.523438
967.792969	11151.143555
966.033203	11094.586914
964.273438	11278.074219
962.511719	11416.039063
960.750000	11579.491211
958.990234	11705.965820
957.226563	11639.408203
955.464844	11497.693359
953.703125	11435.466797
951.939453	11292.445313
950.175781	11054.509766
948.412109	11142.656250
946.648438	11049.391602
944.882813	11110.581055
943.117188	11007.451172
941.351563	10952.509766
939.585938	10838.136719
937.820313	10856.854492
936.052734	11101.959961
934.285156	11188.508789
932.517578	11252.387695
930.750000	11474.603516
928.982422	11429.531250
927.212891	11408.505859
925.443359	11268.795898
923.673828	11324.099609
921.904297	11272.038086
920.132813	11160.693359
918.361328	11170.806641
916.591797	10983.321289
914.818359	10828.375977
913.046875	10701.715820
911.275391	10742.949219
909.501953	10641.747070
907.728516	10670.286133
905.955078	10556.460938
904.179688	10528.641602
902.406250	10510.695313
900.630859	10509.657227
898.855469	10615.633789
897.080078	10606.123047
895.302734	10733.137695
893.525391	10633.546875
891.750000	10548.068359
889.970703	10545.610352
888.193359	10306.922852
886.416016	10502.738281
884.636719	10296.495117
882.857422	10295.499023
881.078125	10170.878906
879.296875	10290.696289
877.517578	10251.786133
875.736328	10089.356445
873.955078	10192.264648
872.173828	10001.858398
870.390625	10110.347656
868.609375	9932.670898
866.826172	10010.275391
865.042969	9891.581055
863.259766	10093.894531
861.474609	10090.133789
859.689453	10138.206055
857.904297	10107.824219
856.119141	10176.872070
854.333984	10231.887695
852.546875	9918.787109
850.761719	10147.341797
848.974609	10223.306641
847.185547	10106.228516
845.398438	9992.000977
843.609375	9942.130859
841.822266	9923.030273
840.031250	9842.458008
838.242188	9855.518555
836.453125	9769.411133
834.662109	9715.457031
832.871094	9622.441406
831.080078	9617.393555
829.289063	9644.439453
827.496094	9562.663086
825.703125	9610.626953
823.910156	9845.409180
822.117188	9746.911133
820.324219	9663.790039
818.529297	9683.814453
816.734375	9609.102539
814.939453	9542.782227
813.144531	9685.346680
811.347656	9639.917969
809.550781	9787.958008
807.755859	9532.423828
805.957031	9545.485352
804.160156	9612.777344
802.361328	9528.482422
800.564453	9629.107422
798.765625	9632.401367
796.964844	9698.217773
795.166016	9914.024414
793.365234	10014.459961
791.564453	9995.441406
789.763672	10079.151367
787.962891	10007.388672
786.160156	9773.324219
784.359375	9611.500977
782.556641	9560.698242
780.751953	9350.471680
778.949219	9389.853516
777.144531	9201.938477
775.339844	9209.466797
773.535156	9358.280273
771.730469	9342.224609
769.925781	9369.096680
768.119141	9348.891602
766.312500	9283.027344
764.505859	9336.178711
762.697266	9493.045898
760.890625	9446.552734
759.082031	9651.707031
757.273438	9446.239258
755.464844	9727.300781
753.654297	9879.741211
751.845703	10188.190430
750.035156	10239.640625
748.224609	10597.559570
746.412109	11078.154297
744.601563	11918.689453
742.789063	12764.344727
740.976563	14075.803711
739.164063	16276.082031
737.349609	19885.679688
735.537109	24021.466797
733.722656	28029.898438
731.908203	29691.628906
730.091797	27629.597656
728.277344	23581.500000
726.460938	19021.806641
724.644531	15445.623047
722.828125	12962.333984
721.009766	11664.713867
719.193359	10956.375000
717.375000	10545.383789
715.556641	10024.608398
713.736328	10140.432617
711.917969	9838.477539
710.097656	9722.123047
708.277344	9594.835938
706.457031	9460.742188
704.636719	9664.416992
702.814453	9636.047852
700.992188	9941.120117
699.169922	10053.994141
697.347656	10183.271484
695.523438	10387.900391
693.699219	10580.092773
691.875000	10785.899414
690.050781	10558.628906
688.226563	10664.340820
686.400391	10541.290039
684.574219	10207.438477
682.748047	10140.676758
680.921875	9976.778320
679.095703	10053.765625
677.267578	10195.006836
675.439453	10219.935547
673.611328	10232.546875
671.781250	10153.566406
669.953125	10125.187500
668.123047	9897.343750
666.292969	9877.233398
664.460938	9853.034180
662.630859	9942.166016
660.798828	9814.222656
658.966797	9859.651367
657.134766	9898.235352
655.302734	10025.460938
653.468750	10167.625977
651.634766	10150.208984
649.800781	10297.727539
647.966797	10344.333008
646.130859	10083.017578
644.294922	10196.391602
642.458984	10085.025391
640.623047	9988.685547
638.787109	10054.361328
636.949219	10035.636719
635.111328	10113.511719
633.273438	10219.912109
631.435547	10188.920898
629.595703	10296.609375
627.757813	10247.945313
625.917969	10388.178711
624.076172	10147.965820
622.236328	10286.795898
620.394531	10029.067383
618.552734	10132.563477
616.710938	10052.786133
614.869141	9940.482422
613.025391	9689.861328
611.183594	9678.056641
609.339844	9654.053711
607.494141	9613.793945
605.650391	9597.947266
603.804688	9506.231445
601.958984	9548.665039
600.113281	9454.293945
598.267578	9450.683594
596.419922	9272.454102
594.572266	9182.274414
592.724609	9255.849609
590.876953	9138.662109
589.027344	9166.231445
587.179688	9078.865234
585.330078	9151.040039
583.480469	9058.311523
581.628906	9027.776367
579.779297	9052.633789
577.927734	8973.497070
576.076172	9221.120117
574.222656	9163.576172
572.371094	9231.557617
570.517578	9482.986328
568.664063	9556.252930
566.810547	9773.770508
564.955078	9964.220703
563.101563	9937.577148
561.246094	9823.358398
559.390625	9412.811523
557.533203	9376.888672
555.677734	9250.764648
553.820313	9062.773438
551.962891	9060.606445
550.105469	9195.688477
548.246094	8890.805664
546.386719	9087.729492
544.527344	9065.385742
542.667969	9096.825195
540.808594	9242.485352
538.947266	9171.748047
537.085938	9490.608398
535.224609	9323.147461
533.363281	9208.130859
531.500000	8973.698242
529.638672	8666.907227
527.775391	8778.878906
525.910156	8716.415039
524.046875	8884.645508
522.181641	9146.647461
520.316406	9602.887695
518.451172	9355.346680
516.585938	9039.595703
514.718750	8934.291016
512.851563	8744.670898
510.984375	8624.759766
509.117188	8636.079102
507.250000	8521.603516
505.380859	8626.591797
503.511719	8458.669922
501.642578	8633.158203
499.771484	8498.736328
497.902344	8435.217773
496.031250	8526.736328
494.160156	8440.529297
492.287109	8274.224609
490.416016	8391.084961
488.542969	8349.025391
486.669922	8463.141602
484.796875	8353.031250
482.921875	8331.019531
481.046875	8459.727539
479.171875	8383.030273
477.296875	8547.656250
475.421875	8432.324219
473.544922	8430.303711
471.667969	8484.232422
469.791016	8646.009766
467.914063	8606.656250
466.035156	8713.749023
464.156250	8685.043945
462.277344	8668.327148
460.398438	8458.738281
458.519531	8427.454102
456.638672	8327.046875
454.757813	8297.136719
452.876953	8486.513672
450.994141	8471.193359
449.113281	8409.390625
447.230469	8475.101563
445.347656	8411.998047
443.462891	8383.435547
441.580078	8413.274414
439.695313	8512.086914
437.810547	8553.817383
435.925781	8473.529297
434.039063	8394.605469
432.152344	8571.526367
430.267578	8475.388672
428.378906	8428.314453
426.492188	8447.486328
424.603516	8411.033203
422.714844	8326.939453
420.826172	8290.532227
418.937500	8273.990234
417.046875	8432.076172
415.158203	8359.958984
413.265625	8420.101563
411.375000	8389.000977
409.484375	8431.925781
407.591797	8411.406250
405.699219	8345.983398
403.806641	8424.543945
401.912109	8231.074219
400.019531	8299.063477
