#Wave		#Intensity
1585.210938	12728.002930
1584.209961	12690.539063
1583.208984	12453.179688
1582.208008	12592.906250
1581.206055	12502.933594
1580.204102	12605.158203
1579.202148	12527.694336
1578.200195	12507.637695
1577.198242	12492.576172
1576.195313	12362.820313
1575.192383	12754.152344
1574.189453	12537.157227
1573.186523	12681.585938
1572.182617	12534.456055
1571.178711	12464.604492
1570.174805	12509.340820
1569.170898	12546.588867
1568.166992	12461.840820
1567.162109	12334.816406
1566.158203	12546.259766
1565.153320	12396.879883
1564.147461	12332.129883
1563.142578	12784.661133
1562.136719	12550.789063
1561.130859	12669.993164
1560.125000	12749.382813
1559.119141	12908.250977
1558.113281	13049.664063
1557.106445	13094.152344
1556.099609	13521.035156
1555.092773	13535.614258
1554.084961	13746.278320
1553.078125	13619.349609
1552.070313	13658.708984
1551.062500	13814.641602
1550.054688	13697.695313
1549.045898	13774.207031
1548.038086	13530.883789
1547.029297	13550.388672
1546.020508	13730.960938
1545.011719	13455.586914
1544.001953	13371.058594
1542.992188	13180.074219
1541.982422	13246.673828
1540.972656	12842.900391
1539.962891	13092.690430
1538.952148	12684.165039
1537.942383	12552.892578
1536.931641	12483.510742
1535.919922	12646.613281
1534.909180	12584.656250
1533.897461	12250.814453
1532.886719	12268.048828
1531.874023	12522.481445
1530.862305	12277.791992
1529.850586	12277.719727
1528.837891	12252.953125
1527.825195	12080.065430
1526.812500	12223.196289
1525.799805	12084.935547
1524.786133	12173.723633
1523.772461	12200.804688
1522.758789	12363.519531
1521.745117	12030.544922
1520.731445	12121.733398
1519.716797	12094.576172
1518.702148	12175.856445
1517.687500	12138.842773
1516.672852	12052.579102
1515.657227	12096.874023
1514.642578	12251.950195
1513.626953	12313.416992
1512.610352	12239.493164
1511.594727	12163.137695
1510.579102	12254.104492
1509.562500	12359.791992
1508.545898	12285.916992
1507.529297	12086.680664
1506.511719	12128.422852
1505.494141	12236.503906
1504.477539	12366.653320
1503.458984	12278.110352
1502.441406	12368.898438
1501.423828	12358.969727
1500.405273	12390.780273
1499.386719	12282.666992
1498.368164	12231.041016
1497.348633	12545.014648
1496.330078	12638.083984
1495.310547	12515.291992
1494.291016	12608.327148
1493.271484	12546.877930
1492.250977	12669.280273
1491.231445	12857.793945
1490.210938	12725.279297
1489.190430	12563.424805
1488.168945	12480.004883
1487.148438	12590.047852
1486.126953	12614.366211
1485.105469	12841.812500
1484.083984	12614.031250
1483.061523	12405.915039
1482.040039	12721.314453
1481.017578	12655.096680
1479.995117	12816.282227
1478.971680	13089.843750
1477.949219	13182.442383
1476.925781	13211.472656
1475.902344	13184.304688
1474.878906	13428.251953
1473.855469	13322.908203
1472.831055	13366.531250
1471.806641	13703.039063
1470.782227	13868.582031
1469.757813	13860.825195
1468.733398	14318.987305
1467.708008	14640.383789
1466.682617	14990.905273
1465.657227	15321.778320
1464.631836	15696.384766
1463.605469	15958.741211
1462.579102	16362.294922
1461.552734	16602.480469
1460.526367	17025.212891
1459.500000	16899.939453
1458.472656	17059.529297
1457.445313	16836.947266
1456.417969	16573.091797
1455.390625	16423.683594
1454.362305	15945.981445
1453.334961	15536.565430
1452.306641	15470.125977
1451.277344	14995.346680
1450.249023	14537.775391
1449.219727	14265.054688
1448.191406	13980.299805
1447.162109	13948.250977
1446.131836	14001.203125
1445.102539	13702.111328
1444.072266	13713.828125
1443.041992	13633.324219
1442.011719	13404.853516
1440.981445	13273.504883
1439.950195	13345.928711
1438.918945	13566.227539
1437.887695	13158.566406
1436.856445	13117.052734
1435.825195	13128.865234
1434.792969	13036.496094
1433.760742	12813.367188
1432.728516	12849.450195
1431.696289	12640.978516
1430.663086	12626.246094
1429.629883	12744.628906
1428.596680	12478.234375
1427.563477	12674.010742
1426.530273	12676.211914
1425.496094	12412.414063
1424.461914	12148.724609
1423.427734	12385.495117
1422.393555	12279.001953
1421.358398	12162.887695
1420.323242	12375.349609
1419.288086	12196.468750
1418.252930	12114.246094
1417.217773	12304.855469
1416.181641	12389.185547
1415.145508	12425.215820
1414.109375	12318.885742
1413.073242	12400.745117
1412.036133	12475.333984
1411.000000	12359.413086
1409.962891	12581.026367
1408.924805	13041.148438
1407.887695	13137.226563
1406.849609	13252.536133
1405.812500	13627.926758
1404.773438	13747.900391
1403.735352	14250.632813
1402.697266	14779.633789
1401.658203	14800.619141
1400.619141	14792.720703
1399.580078	14905.106445
1398.540039	15207.446289
1397.500977	15096.068359
1396.460938	15018.392578
1395.420898	14851.816406
1394.380859	14875.152344
1393.339844	14725.491211
1392.298828	14619.128906
1391.257813	14246.234375
1390.216797	14272.074219
1389.175781	14468.344727
1388.133789	14606.930664
1387.091797	14351.924805
1386.049805	14948.700195
1385.007813	15082.298828
1383.964844	15242.219727
1382.922852	15869.601563
1381.879883	15938.199219
1380.835938	16131.390625
1379.792969	16798.923828
1378.749023	17152.355469
1377.706055	17572.701172
1376.661133	17552.267578
1375.617188	17677.880859
1374.573242	17444.402344
1373.528320	17881.082031
1372.483398	17482.568359
1371.438477	17433.464844
1370.392578	17379.595703
1369.347656	17098.597656
1368.301758	16578.656250
1367.255859	16513.046875
1366.208984	16421.179688
1365.163086	16279.176758
1364.116211	15802.833008
1363.069336	15689.674805
1362.022461	15619.539063
1360.974609	15372.788086
1359.927734	15259.787109
1358.879883	15003.667969
1357.832031	15062.551758
1356.783203	15097.559570
1355.735352	14999.014648
1354.686523	15172.294922
1353.637695	15300.213867
1352.588867	15246.963867
1351.539063	15739.346680
1350.490234	16007.606445
1349.440430	16247.173828
1348.390625	16900.947266
1347.339844	17111.658203
1346.290039	17588.847656
1345.239258	18034.902344
1344.188477	18357.056641
1343.137695	19095.326172
1342.085938	19604.990234
1341.034180	19774.441406
1339.982422	20174.398438
1338.930664	20754.808594
1337.878906	21047.464844
1336.826172	20914.765625
1335.773438	21171.636719
1334.720703	21079.332031
1333.667969	21089.150391
1332.614258	20745.296875
1331.561523	20185.632813
1330.507813	20098.351563
1329.453125	19821.337891
1328.399414	19447.203125
1327.344727	19194.148438
1326.290039	18867.712891
1325.235352	18631.474609
1324.180664	17895.347656
1323.125000	17969.765625
1322.070313	17553.847656
1321.014648	17708.820313
1319.958008	17475.437500
1318.902344	17130.894531
1317.845703	16665.798828
1316.789063	16707.248047
1315.732422	16391.468750
1314.675781	15936.279297
1313.618164	15779.223633
1312.560547	15799.542969
1311.502930	15354.215820
1310.445313	15336.803711
1309.386719	14768.901367
1308.329102	14706.736328
1307.270508	14661.128906
1306.210938	14447.897461
1305.152344	14050.623047
1304.092773	13910.773438
1303.033203	13846.490234
1301.973633	13694.943359
1300.914063	13531.666992
1299.853516	13377.890625
1298.792969	13554.252930
1297.732422	13591.465820
1296.671875	13046.562500
1295.611328	13354.826172
1294.549805	13281.337891
1293.488281	13010.042969
1292.426758	12873.080078
1291.364258	13105.781250
1290.302734	13152.442383
1289.240234	13241.439453
1288.177734	13349.219727
1287.114258	13285.243164
1286.051758	13127.223633
1284.988281	13324.302734
1283.924805	13145.183594
1282.861328	13701.756836
1281.796875	13673.013672
1280.732422	13895.648438
1279.667969	14010.146484
1278.603516	14526.141602
1277.539063	14797.753906
1276.473633	14926.069336
1275.408203	15148.198242
1274.342773	15407.771484
1273.277344	15186.356445
1272.210938	15567.762695
1271.145508	15393.300781
1270.079102	15017.304688
1269.011719	15086.781250
1267.945313	14959.392578
1266.877930	14808.628906
1265.810547	14205.871094
1264.743164	14017.860352
1263.674805	13736.277344
1262.607422	13642.075195
1261.539063	13206.230469
1260.470703	12885.219727
1259.401367	12882.487305
1258.333008	12711.361328
1257.263672	12708.665039
1256.194336	12444.134766
1255.125000	12586.407227
1254.054688	12413.148438
1252.985352	12207.254883
1251.915039	12176.632813
1250.843750	12234.766602
1249.773438	12017.364258
1248.702148	12175.880859
1247.630859	12175.627930
1246.559570	12138.041016
1245.488281	12032.816406
1244.416016	11922.971680
1243.343750	12111.649414
1242.271484	12095.085938
1241.199219	11882.736328
1240.125977	11994.397461
1239.053711	11919.620117
1237.980469	11882.144531
1236.906250	12084.557617
1235.833008	12137.867188
1234.758789	12091.053711
1233.684570	11895.306641
1232.610352	11953.273438
1231.536133	12055.416016
1230.460938	12141.233398
1229.385742	12038.654297
1228.310547	12096.537109
1227.235352	12249.696289
1226.159180	12119.269531
1225.083008	12021.425781
1224.006836	12081.582031
1222.930664	12164.936523
1221.853516	12338.810547
1220.777344	12066.890625
1219.700195	12038.786133
1218.622070	11999.089844
1217.544922	12216.925781
1216.466797	12012.524414
1215.388672	12086.486328
1214.310547	11893.791016
1213.232422	11872.707031
1212.153320	12169.126953
1211.074219	12310.181641
1209.995117	12333.033203
1208.916016	12309.553711
1207.835938	12290.713867
1206.755859	12271.881836
1205.675781	12426.645508
1204.595703	12229.610352
1203.514648	12243.189453
1202.434570	12286.832031
1201.353516	12226.389648
1200.271484	12191.405273
1199.190430	12276.634766
1198.108398	12179.253906
1197.026367	12130.435547
1195.944336	12003.094727
1194.862305	12104.455078
1193.779297	12057.989258
1192.696289	11882.262695
1191.613281	11621.210938
1190.530273	11854.094727
1189.446289	11738.506836
1188.362305	11676.018555
1187.278320	11394.476563
1186.194336	11401.254883
1185.109375	11315.825195
1184.024414	11304.179688
1182.939453	11181.939453
1181.854492	11218.701172
1180.768555	11347.572266
1179.683594	11064.213867
1178.597656	11105.579102
1177.510742	11199.863281
1176.424805	10863.789063
1175.337891	11093.823242
1174.250977	11075.337891
1173.164063	11141.948242
1172.077148	11056.783203
1170.989258	11077.392578
1169.901367	10989.977539
1168.813477	10895.706055
1167.724609	10923.226563
1166.636719	10955.327148
1165.547852	10884.083984
1164.458984	11102.130859
1163.369141	11051.541992
1162.280273	11044.573242
1161.190430	10968.779297
1160.100586	11081.104492
1159.010742	10959.467773
1157.919922	10984.620117
1156.829102	11032.683594
1155.738281	11002.804688
1154.647461	11108.123047
1153.555664	11085.111328
1152.464844	11123.946289
1151.373047	11240.616211
1150.280273	11375.549805
1149.188477	11279.254883
1148.095703	11496.499023
1147.002930	11391.066406
1145.910156	11608.190430
1144.817383	11486.769531
1143.723633	11555.165039
1142.629883	11410.947266
1141.536133	11266.791016
1140.441406	11259.787109
1139.347656	11264.207031
1138.252930	11266.339844
1137.158203	11311.855469
1136.062500	11197.547852
1134.967773	11222.515625
1133.872070	11053.509766
1132.776367	11096.747070
1131.679688	11089.784180
1130.583984	11103.346680
1129.487305	11030.266602
1128.390625	11221.629883
1127.292969	11023.211914
1126.196289	11020.824219
1125.098633	11146.002930
1124.000977	10904.455078
1122.903320	10795.075195
1121.804688	10997.618164
1120.706055	10906.470703
1119.607422	10951.891602
1118.508789	11088.291016
1117.409180	10844.790039
1116.310547	10783.313477
1115.210938	10828.717773
1114.110352	10833.186523
1113.010742	11005.819336
1111.910156	10971.622070
1110.809570	10885.193359
1109.708984	10694.333008
1108.607422	10853.219727
1107.506836	10785.030273
1106.405273	10873.468750
1105.303711	10689.581055
1104.201172	10698.600586
1103.098633	10680.397461
1101.996094	10700.750977
1100.893555	10634.945313
1099.791016	10700.630859
1098.687500	10632.584961
1097.583984	10464.881836
1096.480469	10657.404297
1095.376953	10458.062500
1094.272461	10467.105469
1093.167969	10641.390625
1092.063477	10442.178711
1090.958008	10555.299805
1089.853516	10559.787109
1088.748047	10528.083984
1087.642578	10430.819336
1086.536133	10613.921875
1085.430664	10475.996094
1084.324219	10509.867188
1083.217773	10579.869141
1082.110352	10503.023438
1081.003906	10591.060547
1079.896484	10460.058594
1078.789063	10629.325195
1077.680664	10347.168945
1076.573242	10498.333984
1075.464844	10568.225586
1074.356445	10496.003906
1073.247070	10592.920898
1072.138672	10486.909180
1071.029297	10371.927734
1069.919922	10640.055664
1068.809570	10565.639648
1067.700195	10739.009766
1066.589844	10500.219727
1065.479492	10612.740234
1064.368164	10653.184570
1063.257813	10558.588867
1062.146484	10565.277344
1061.035156	10574.210938
1059.922852	10614.624023
1058.811523	10628.038086
1057.699219	10666.171875
1056.586914	10522.250000
1055.473633	10643.522461
1054.361328	10495.173828
1053.248047	10528.807617
1052.134766	10629.789063
1051.021484	10353.577148
1049.907227	10631.860352
1048.792969	10503.867188
1047.678711	10351.251953
1046.564453	10618.134766
1045.449219	10483.499023
1044.333984	10528.278320
1043.218750	10438.548828
1042.103516	10808.259766
1040.987305	10570.634766
1039.871094	10335.352539
1038.754883	10460.733398
1037.638672	10749.505859
1036.521484	10693.417969
1035.404297	10659.735352
1034.287109	10726.754883
1033.169922	10724.395508
1032.051758	10932.272461
1030.933594	10621.290039
1029.815430	10882.750000
1028.697266	10884.825195
1027.578125	10976.281250
1026.458984	10920.246094
1025.339844	10772.657227
1024.220703	11029.325195
1023.100586	10939.823242
1021.980469	10899.466797
1020.860352	11062.205078
1019.740234	11173.555664
1018.619141	11139.862305
1017.498047	11072.731445
1016.376953	11132.720703
1015.255859	11063.389648
1014.133789	11060.948242
1013.011719	11049.594727
1011.889648	11127.353516
1010.767578	11138.259766
1009.644531	11097.946289
1008.521484	10981.958984
1007.398438	11041.853516
1006.274414	11101.720703
1005.151367	10721.060547
1004.027344	10956.686523
1002.902344	11018.753906
1001.778320	11045.220703
1000.653320	10964.981445
999.528320	10953.666992
998.403320	10942.357422
997.278320	10777.780273
996.152344	10775.395508
995.026367	10826.298828
993.900391	10779.505859
992.773438	10626.204102
991.646484	10785.827148
990.519531	10732.416016
989.392578	10517.123047
988.265625	10765.356445
987.137695	10867.164063
986.009766	10738.421875
984.881836	10953.199219
983.752930	10724.798828
982.624023	10921.763672
981.495117	10817.477539
980.366211	10885.923828
979.236328	10823.745117
978.106445	10814.704102
976.976563	10765.841797
975.846680	10847.506836
974.715820	10732.312500
973.585938	10588.425781
972.454102	10619.231445
971.323242	10707.482422
970.191406	10601.256836
969.060547	10711.560547
967.927734	10773.227539
966.795898	10717.838867
965.663086	10609.493164
964.530273	10830.046875
963.397461	10624.633789
962.264648	11116.431641
961.130859	10979.416992
959.997070	10979.178711
958.863281	11203.808594
957.729492	10996.332031
956.594727	11086.435547
955.459961	10962.793945
954.325195	10980.175781
953.189453	11083.432617
952.053711	10933.451172
950.917969	10867.180664
949.782227	10838.350586
948.646484	10613.714844
947.509766	10712.534180
946.373047	10740.933594
945.235352	10523.063477
944.098633	10542.697266
942.960938	10716.164063
941.823242	10751.125000
940.685547	10698.200195
939.546875	10555.250977
938.408203	10715.380859
937.269531	10921.539063
936.129883	10844.476563
934.991211	10701.618164
933.851563	10938.352539
932.711914	11006.094727
931.571289	11100.118164
930.431641	10963.904297
929.291016	11178.445313
928.149414	10994.062500
927.008789	11074.856445
925.867188	11109.614258
924.725586	10866.240234
923.583984	10933.869141
922.441406	10773.820313
921.299805	10740.770508
920.157227	10762.432617
919.013672	10530.340820
917.871094	10420.821289
916.727539	10442.537109
915.583984	10269.691406
914.439453	10208.381836
913.295898	10173.319336
912.151367	10262.787109
911.006836	10212.437500
909.861328	10367.360352
908.716797	10218.772461
907.571289	10308.146484
906.424805	10288.376953
905.279297	10386.419922
904.132813	10255.405273
902.986328	10475.522461
901.839844	10348.904297
900.692383	10150.416016
899.545898	9980.343750
898.398438	10028.210938
897.250000	10200.208008
896.102539	10169.606445
894.954102	10398.099609
893.805664	10367.464844
892.656250	10191.040039
891.507813	10064.733398
890.358398	10243.011719
889.208984	10264.628906
888.058594	10079.685547
886.908203	10279.574219
885.758789	10151.211914
884.607422	10240.182617
883.457031	9983.722656
882.305664	9966.271484
881.154297	10048.707031
880.002930	10039.931641
878.850586	9966.049805
877.698242	10087.483398
876.545898	10037.485352
875.393555	9944.130859
874.240234	9811.788086
873.086914	9816.080078
871.933594	9993.757813
870.780273	9859.324219
869.625977	9965.419922
868.471680	9950.175781
867.317383	9714.065430
866.162109	9811.459961
865.007813	9891.494141
863.852539	10003.950195
862.696289	9997.364258
861.541016	9889.121094
860.384766	9878.237305
859.228516	9824.118164
858.072266	9737.599609
856.915039	9780.780273
855.757813	9672.703125
854.600586	9672.676758
853.442383	9705.042969
852.285156	9683.416992
851.126953	9864.706055
849.968750	9909.953125
848.809570	9914.183594
847.650391	9929.197266
846.491211	9866.564453
845.332031	9687.528320
844.171875	9758.627930
843.012695	9829.693359
841.851563	9773.600586
840.691406	9767.079102
839.530273	9855.322266
838.369141	9730.356445
837.208008	9820.718750
836.046875	9706.577148
834.884766	9786.143555
833.722656	9794.681641
832.560547	9734.389648
831.397461	9721.431641
830.234375	9869.711914
829.071289	9802.994141
827.908203	9809.366211
826.744141	9697.575195
825.580078	9802.766602
824.416016	9995.952148
823.251953	9944.304688
822.086914	9858.337891
820.921875	9847.516602
819.756836	9873.169922
818.590820	9658.581055
817.425781	9825.796875
816.259766	9649.905273
815.092773	9688.437500
813.926758	9761.240234
812.759766	9975.412109
811.592773	9746.092773
810.424805	9853.093750
809.257813	9688.135742
808.089844	9724.461914
806.920898	9745.791016
805.752930	9739.294922
804.583984	9595.899414
803.415039	9880.287109
802.246094	9741.200195
801.076172	9700.505859
799.906250	9738.902344
798.736328	9414.051758
797.566406	9582.800781
796.395508	9574.211914
795.224609	9740.709961
794.053711	9627.487305
792.881836	9838.714844
791.710938	9845.006836
790.538086	10019.822266
789.366211	9962.086914
788.194336	9998.196289
787.021484	10115.296875
785.848633	10166.272461
784.674805	10021.189453
783.500977	9984.818359
782.327148	9835.582031
781.153320	9856.760742
779.979492	9828.965820
778.804688	9856.519531
777.629883	9779.793945
776.454102	9794.580078
775.279297	9771.075195
774.103516	9705.050781
772.927734	9828.265625
771.750977	9662.359375
770.575195	9828.025391
769.398438	9691.937500
768.220703	9761.939453
767.043945	9957.195313
765.866211	9878.490234
764.688477	9929.296875
763.510742	9837.899414
762.332031	9899.297852
761.153320	10058.237305
759.974609	10185.293945
758.794922	10076.958008
757.616211	10225.147461
756.436523	10381.745117
755.255859	10375.131836
754.076172	10521.030273
752.895508	10698.626953
751.714844	10973.533203
750.533203	11193.278320
749.352539	11789.613281
748.170898	12078.888672
746.988281	12801.663086
745.806641	13481.808594
744.624023	14759.992188
743.441406	16196.125000
742.258789	18367.041016
741.075195	20684.861328
739.891602	24233.130859
738.708008	27327.826172
737.523438	30053.718750
736.339844	32185.189453
735.155273	33566.476563
733.969727	33588.316406
732.785156	32456.267578
731.599609	30449.505859
730.414063	27800.570313
729.227539	24788.160156
728.041992	21545.302734
726.855469	19169.929688
725.667969	17107.416016
724.481445	15294.364258
723.293945	14162.252930
722.106445	12906.458008
720.918945	12259.477539
719.730469	11793.749023
718.541992	11342.959961
717.353516	10915.511719
716.164063	10591.291992
714.975586	10269.321289
713.786133	10111.433594
712.595703	10092.299805
711.406250	10012.251953
710.215820	9728.512695
709.025391	9659.083008
707.833984	9474.221680
706.642578	9809.956055
705.451172	9604.160156
704.259766	9446.708984
703.068359	9566.184570
701.875977	9647.860352
700.683594	9595.327148
699.490234	9790.137695
698.297852	9695.684570
697.104492	9735.353516
695.910156	9783.380859
694.716797	9908.863281
693.522461	9791.438477
692.328125	9971.279297
691.132813	10213.813477
689.938477	10075.476563
688.743164	10238.392578
687.547852	10035.287109
686.351563	9991.163086
685.155273	10279.393555
683.958984	10208.066406
682.762695	9886.067383
681.565430	10038.354492
680.368164	9850.188477
679.170898	9806.163086
677.973633	9816.426758
676.775391	9814.164063
675.577148	9640.824219
674.378906	9669.888672
673.179688	9880.364258
671.980469	9613.308594
670.781250	9829.952148
669.581055	9733.909180
668.381836	9677.495117
667.181641	9893.971680
665.980469	9785.483398
664.780273	9737.421875
663.579102	10093.193359
662.377930	9928.544922
661.175781	9809.743164
659.973633	10181.889648
658.771484	10233.608398
657.569336	10397.574219
656.367188	10453.375000
655.164063	10687.869141
653.960938	10847.458984
652.756836	10979.970703
651.552734	11160.184570
650.348633	11149.301758
649.144531	11208.999023
647.939453	11183.582031
646.735352	11353.205078
645.529297	11497.857422
644.324219	11518.012695
643.118164	11451.078125
641.912109	11535.492188
640.706055	11491.377930
639.499023	11526.016602
638.292969	11463.281250
637.084961	11597.313477
635.877930	11379.303711
634.669922	11273.173828
633.461914	11256.080078
632.253906	11294.858398
631.044922	11445.319336
629.836914	11240.000977
628.626953	11293.226563
627.417969	11104.573242
626.208008	10887.074219
624.998047	10911.416016
623.788086	10910.957031
622.577148	10902.237305
621.366211	10600.328125
620.155273	10447.184570
618.944336	10281.729492
617.732422	10056.513672
616.520508	10202.708984
615.308594	10016.798828
614.095703	9929.944336
612.882813	9678.217773
611.669922	9768.717773
610.457031	9820.027344
609.243164	9514.940430
608.029297	9665.138672
606.815430	9347.873047
605.600586	9362.176758
604.385742	9368.240234
603.170898	9384.588867
601.955078	9514.069336
600.740234	9509.808594
599.524414	9394.518555
598.307617	9301.892578
597.091797	9507.311523
595.875000	9381.826172
594.658203	9402.249023
593.440430	9498.651367
592.222656	9531.356445
591.004883	9512.724609
589.787109	9453.054688
588.568359	9598.597656
587.349609	9655.863281
586.130859	9647.472656
584.912109	9460.697266
583.692383	9487.204102
582.472656	9493.202148
581.251953	9679.510742
580.032227	9603.519531
578.811523	9478.409180
577.589844	9787.444336
576.369141	9889.577148
575.147461	9780.859375
573.925781	9850.206055
572.703125	9796.780273
571.481445	9823.140625
570.258789	9890.383789
569.035156	10162.020508
567.812500	9987.985352
566.588867	10143.003906
565.365234	10208.065430
564.140625	10250.628906
562.916992	10162.492188
561.692383	9941.703125
560.466797	10129.204102
559.242188	10035.033203
558.016602	9973.544922
556.791016	9869.254883
555.564453	10087.181641
554.337891	9897.291992
553.111328	9868.500000
551.884766	9709.312500
550.657227	9592.978516
549.429688	9786.274414
548.202148	9724.953125
546.974609	9755.268555
545.746094	9704.157227
544.517578	9610.339844
543.288086	9703.722656
542.058594	9723.842773
540.829102	9617.882813
539.599609	9865.698242
538.370117	9729.267578
537.139648	9594.931641
535.909180	9659.743164
534.677734	9610.787109
533.446289	9614.648438
532.214844	9470.310547
530.983398	9547.266602
529.750977	9595.778320
528.519531	9309.538086
527.286133	9552.788086
526.053711	9404.574219
524.820313	9418.608398
523.586914	9410.341797
522.353516	9590.524414
521.119141	9628.814453
519.884766	9507.082031
518.650391	9628.393555
517.415039	9508.741211
516.179688	9417.479492
514.944336	9253.413086
513.708984	9465.705078
