#Wave		#Intensity
2109.224609	7217.914063
2107.712891	7160.025391
2106.201172	7323.837891
2104.687500	7251.164551
2103.175781	7204.968750
2101.662109	7152.183105
2100.150391	7178.725098
2098.636719	7155.700684
2097.123047	7084.793945
2095.607422	7079.962402
2094.093750	7109.798828
2092.578125	7076.907227
2091.064453	7171.083008
2089.548828	7012.816406
2088.033203	7037.693848
2086.517578	7083.997070
2085.000000	7122.037598
2083.484375	6972.159180
2081.966797	7062.940430
2080.449219	7040.001465
2078.931641	7059.899414
2077.414063	7147.309570
2075.894531	7135.892578
2074.376953	7017.481445
2072.857422	7080.157715
2071.337891	6976.618652
2069.818359	7129.755859
2068.298828	7021.316406
2066.777344	7016.519043
2065.257813	7034.739746
2063.736328	6980.631348
2062.214844	7015.285156
2060.693359	7090.998047
2059.171875	7027.057129
2057.648438	7015.695313
2056.126953	7089.717773
2054.603516	7022.535156
2053.080078	7106.371094
2051.556641	7073.671387
2050.033203	7318.228516
2048.507813	6949.268555
2046.984375	7005.172363
2045.458984	7105.316406
2043.933594	7067.734375
2042.408203	6990.839355
2040.882813	7017.194824
2039.355469	6997.674316
2037.830078	7094.437500
2036.302734	7058.535645
2034.775391	7130.689453
2033.248047	7142.257324
2031.718750	7091.641602
2030.191406	7096.668945
2028.662109	7031.364258
2027.134766	7018.414551
2025.605469	7070.865723
2024.076172	6994.166504
2022.544922	6984.501465
2021.015625	7084.307617
2019.484375	7004.387207
2017.955078	6901.637207
2016.423828	6913.226563
2014.892578	7083.157227
2013.359375	6996.776855
2011.828125	7014.864746
2010.294922	6961.163574
2008.761719	7122.783691
2007.230469	7116.372559
2005.695313	6953.450684
2004.162109	7165.499023
2002.628906	7064.562500
2001.093750	7048.393066
1999.558594	6963.813965
1998.023438	7045.390137
1996.488281	7082.967773
1994.953125	6988.667480
1993.417969	7024.613770
1991.880859	6946.638184
1990.343750	7083.444336
1988.806641	7129.106445
1987.269531	7025.139160
1985.732422	7039.902832
1984.193359	7126.181641
1982.656250	7025.531738
1981.117188	7038.660645
1979.578125	7069.652832
1978.039063	7056.780762
1976.500000	6982.210938
1974.958984	7094.366211
1973.417969	7141.550781
1971.878906	7057.273438
1970.337891	7145.005371
1968.796875	7101.314453
1967.253906	6999.260254
1965.712891	6960.482422
1964.169922	6970.351074
1962.626953	7177.937012
1961.083984	6996.557129
1959.541016	7155.449707
1957.998047	7087.525879
1956.455078	7009.914551
1954.910156	7152.513184
1953.365234	7018.270020
1951.820313	7193.171387
1950.275391	7160.904785
1948.730469	7161.003418
1947.183594	7077.005371
1945.638672	6889.562500
1944.091797	7174.229980
1942.544922	7062.807129
1940.998047	7153.413574
1939.449219	7147.050293
1937.902344	7134.229492
1936.353516	6980.922852
1934.804688	7061.782227
1933.255859	7221.700684
1931.707031	7157.232422
1930.158203	7234.775391
1928.607422	7079.996094
1927.058594	7023.662109
1925.507813	7085.059082
1923.957031	7014.238770
1922.406250	7044.988281
1920.853516	6998.376953
1919.302734	7017.838867
1917.750000	7014.742188
1916.197266	7048.686035
1914.644531	7147.017090
1913.091797	7142.284668
1911.539063	7040.992188
1909.984375	6904.343750
1908.431641	7152.229492
1906.876953	7133.023926
1905.322266	7149.203125
1903.767578	7056.053223
1902.210938	7078.670410
1900.656250	6956.648926
1899.099609	7109.415527
1897.542969	6972.981934
1895.986328	7119.256348
1894.429688	7117.750488
1892.873047	7072.902832
1891.314453	7132.395020
1889.755859	7092.376465
1888.199219	7129.379395
1886.640625	6937.003906
1885.080078	7038.167480
1883.521484	6991.788574
1881.960938	7025.574707
1880.402344	7081.782227
1878.841797	7045.036133
1877.281250	6942.627441
1875.720703	7006.824219
1874.158203	6938.091797
1872.597656	7034.279785
1871.035156	7076.007813
1869.472656	7052.109863
1867.910156	7049.020020
1866.347656	7111.511719
1864.783203	6887.721191
1863.220703	6972.604492
1861.656250	7039.867188
1860.091797	7166.234375
1858.527344	7080.035156
1856.962891	7155.219727
1855.396484	7182.457031
1853.832031	7193.714355
1852.265625	7133.125000
1850.699219	7163.541016
1849.132813	7109.366211
1847.566406	6916.406738
1845.998047	7135.076172
1844.431641	7025.122070
1842.863281	7219.758301
1841.294922	7095.485352
1839.726563	7135.425293
1838.156250	7168.974609
1836.587891	7068.687012
1835.017578	7221.694824
1833.449219	7193.097656
1831.878906	7107.196777
1830.306641	7333.320313
1828.736328	7066.000977
1827.166016	7088.375488
1825.593750	7188.687988
1824.021484	7218.978516
1822.449219	7101.376953
1820.876953	7322.443848
1819.304688	7090.431152
1817.730469	7066.686523
1816.158203	7333.693848
1814.583984	7090.705566
1813.009766	7286.130859
1811.435547	7178.212891
1809.859375	7290.990723
1808.285156	7094.240723
1806.708984	7118.130371
1805.132813	7162.633301
1803.556641	7156.362305
1801.980469	7165.951172
1800.404297	7204.073242
1798.826172	7155.000000
1797.248047	7162.997070
1795.671875	7237.535645
1794.093750	7125.122559
1792.513672	7155.292480
1790.935547	7244.034668
1789.355469	7214.009766
1787.777344	7111.191406
1786.197266	7144.502441
1784.617188	7288.542480
1783.035156	7187.354492
1781.455078	7269.649902
1779.873047	7258.627930
1778.292969	7299.774414
1776.710938	7355.126465
1775.128906	7321.971680
1773.544922	7265.134277
1771.962891	7263.599609
1770.378906	7277.855469
1768.794922	7309.471191
1767.212891	7101.158203
1765.626953	7200.652832
1764.042969	7300.105469
1762.458984	7344.307129
1760.873047	7207.128418
1759.287109	7204.028809
1757.701172	7240.339844
1756.115234	7312.883789
1754.529297	7388.548340
1752.941406	7369.657715
1751.355469	7383.850586
1749.767578	7423.232422
1748.179688	7355.538574
1746.591797	7360.279785
1745.001953	7393.345703
1743.414063	7350.874512
1741.824219	7360.331543
1740.234375	7297.438965
1738.644531	7472.003906
1737.054688	7468.851563
1735.462891	7382.398926
1733.873047	7390.265625
1732.281250	7449.974121
1730.689453	7426.408203
1729.097656	7531.624023
1727.505859	7451.527344
1725.912109	7536.286133
1724.320313	7578.634766
1722.726563	7613.120117
1721.132813	7644.452637
1719.539063	7565.982910
1717.945313	7671.010742
1716.349609	7633.329102
1714.755859	7719.488281
1713.160156	7731.957520
1711.564453	7805.524902
1709.968750	7872.794434
1708.371094	7864.863281
1706.775391	7800.567871
1705.177734	7906.929688
1703.580078	8041.417969
1701.982422	7900.451660
1700.384766	7995.772461
1698.787109	8105.129395
1697.187500	8156.580078
1695.587891	8089.187988
1693.990234	8112.483398
1692.390625	8151.396484
1690.789063	8155.918945
1689.189453	8271.348633
1687.587891	8219.618164
1685.988281	8324.053711
1684.386719	8348.828125
1682.785156	8493.771484
1681.181641	8407.706055
1679.580078	8594.698242
1677.976563	8597.554688
1676.373047	8573.898438
1674.769531	8637.563477
1673.166016	8613.908203
1671.562500	8775.719727
1669.957031	8934.345703
1668.353516	9035.264648
1666.748047	9112.778320
1665.142578	9291.472656
1663.537109	9358.000000
1661.929688	9449.402344
1660.324219	9604.567383
1658.716797	9750.331055
1657.109375	9961.363281
1655.501953	10245.397461
1653.894531	10448.458984
1652.285156	10405.822266
1650.677734	10546.595703
1649.068359	10876.875977
1647.458984	11022.148438
1645.849609	11119.208984
1644.240234	11304.741211
1642.628906	11339.598633
1641.019531	11615.029297
1639.408203	11722.742188
1637.796875	11836.614258
1636.185547	12190.873047
1634.572266	12231.704102
1632.960938	12385.707031
1631.347656	12587.699219
1629.734375	12490.478516
1628.121094	12766.739258
1626.507813	12982.462891
1624.894531	13012.226563
1623.279297	13052.816406
1621.664063	13009.783203
1620.048828	13152.515625
1618.433594	13268.877930
1616.818359	13125.252930
1615.203125	13230.741211
1613.585938	13172.245117
1611.968750	13453.949219
1610.351563	13256.296875
1608.734375	13581.137695
1607.117188	13692.591797
1605.498047	13485.742188
1603.878906	13481.322266
1602.261719	13580.369141
1600.640625	13869.279297
1599.021484	13954.307617
1597.402344	14070.164063
1595.781250	13865.034180
1594.162109	14119.695313
1592.541016	14125.935547
1590.919922	14255.530273
1589.296875	14488.358398
1587.675781	14294.142578
1586.052734	14343.483398
1584.429688	14523.758789
1582.806641	14409.752930
1581.183594	14757.793945
1579.560547	14597.594727
1577.935547	14731.476563
1576.312500	14743.718750
1574.687500	14648.246094
1573.062500	14682.035156
1571.435547	14605.071289
1569.810547	14540.440430
1568.183594	14720.276367
1566.558594	14549.590820
1564.931641	14315.971680
1563.304688	14394.336914
1561.675781	14222.291016
1560.048828	14057.996094
1558.419922	14286.830078
1556.791016	14357.455078
1555.162109	14822.474609
1553.533203	14868.400391
1551.904297	15216.519531
1550.273438	15260.805664
1548.642578	15507.483398
1547.011719	15416.773438
1545.380859	15352.158203
1543.750000	15042.379883
1542.119141	14766.440430
1540.486328	14447.727539
1538.853516	14055.640625
1537.220703	13626.973633
1535.587891	13343.915039
1533.955078	12985.983398
1532.320313	12934.232422
1530.685547	12697.395508
1529.052734	12662.549805
1527.416016	12477.862305
1525.781250	12516.459961
1524.146484	12470.973633
1522.509766	12463.709961
1520.873047	12447.281250
1519.236328	12537.784180
1517.599609	12616.029297
1515.962891	12648.434570
1514.324219	12882.325195
1512.687500	12939.076172
1511.048828	12863.051758
1509.410156	12849.605469
1507.771484	12642.461914
1506.130859	12497.926758
1504.492188	12393.091797
1502.851563	12254.767578
1501.210938	12082.975586
1499.570313	12054.472656
1497.927734	12047.306641
1496.287109	11939.629883
1494.644531	12101.496094
1493.001953	12263.291016
1491.359375	12321.524414
1489.716797	12474.071289
1488.074219	12431.828125
1486.429688	12461.085938
1484.785156	12759.479492
1483.140625	12641.184570
1481.496094	12796.532227
1479.851563	12907.742188
1478.207031	12832.029297
1476.560547	13107.230469
1474.914063	13350.420898
1473.267578	13288.322266
1471.621094	13382.602539
1469.972656	13109.566406
1468.326172	12897.340820
1466.677734	12859.662109
1465.029297	12982.765625
1463.380859	12961.761719
1461.732422	13045.371094
1460.082031	13034.970703
1458.431641	13230.663086
1456.783203	12986.908203
1455.132813	13006.817383
1453.480469	12682.952148
1451.830078	12250.213867
1450.177734	12202.148438
1448.527344	11980.062500
1446.875000	11897.273438
1445.220703	11646.605469
1443.568359	11554.848633
1441.916016	11587.121094
1440.261719	11507.508789
1438.607422	11467.226563
1436.953125	11343.850586
1435.298828	11314.195313
1433.642578	11210.540039
1431.988281	11075.215820
1430.332031	10782.930664
1428.675781	11200.220703
1427.019531	10948.780273
1425.361328	10976.578125
1423.705078	10687.581055
1422.046875	10638.505859
1420.388672	10458.269531
1418.730469	10498.206055
1417.072266	10367.813477
1415.412109	10529.803711
1413.753906	10559.149414
1412.093750	10668.309570
1410.433594	10771.397461
1408.773438	11348.681641
1407.111328	11821.853516
1405.451172	12157.875977
1403.789063	12802.181641
1402.126953	13188.985352
1400.464844	13655.324219
1398.802734	13898.932617
1397.138672	13692.964844
1395.474609	13563.735352
1393.812500	13445.078125
1392.146484	13015.505859
1390.482422	12710.778320
1388.818359	12511.295898
1387.152344	12176.784180
1385.486328	12312.211914
1383.820313	12423.569336
1382.154297	12683.405273
1380.488281	13159.120117
1378.820313	13463.668945
1377.154297	13802.566406
1375.486328	14042.382813
1373.818359	13943.398438
1372.148438	14036.241211
1370.480469	14000.214844
1368.810547	13646.698242
1367.140625	13756.010742
1365.470703	13522.460938
1363.800781	13393.779297
1362.130859	13244.203125
1360.458984	13314.607422
1358.787109	13361.047852
1357.115234	13452.327148
1355.443359	13497.219727
1353.771484	13912.780273
1352.097656	14393.910156
1350.423828	15018.255859
1348.751953	15821.574219
1347.076172	16418.449219
1345.402344	17501.802734
1343.728516	18281.652344
1342.052734	19573.056641
1340.376953	20919.097656
1338.701172	22015.423828
1337.025391	23209.699219
1335.347656	23637.017578
1333.671875	24240.058594
1331.994141	24441.902344
1330.316406	24694.318359
1328.638672	24733.578125
1326.960938	24622.384766
1325.281250	24493.367188
1323.601563	24161.925781
1321.921875	23710.060547
1320.242188	22942.902344
1318.562500	22179.056641
1316.880859	21190.931641
1315.201172	20360.880859
1313.519531	19369.126953
1311.837891	18695.923828
1310.154297	17889.259766
1308.472656	17172.099609
1306.789063	16649.859375
1305.105469	15830.807617
1303.421875	15295.726563
1301.738281	14772.756836
1300.054688	14190.647461
1298.369141	13890.734375
1296.683594	13352.097656
1294.998047	13159.292969
1293.312500	12735.237305
1291.626953	12456.661133
1289.939453	12216.746094
1288.253906	12184.405273
1286.566406	12057.254883
1284.878906	11830.915039
1283.189453	11917.152344
1281.501953	11803.467773
1279.812500	11657.266602
1278.123047	11596.965820
1276.433594	11584.039063
1274.744141	11639.165039
1273.052734	11817.020508
1271.363281	11734.552734
1269.671875	11767.430664
1267.980469	11622.933594
1266.289063	11709.014648
1264.595703	11472.997070
1262.904297	11328.657227
1261.210938	10980.598633
1259.517578	11065.265625
1257.824219	10965.389648
1256.128906	11066.252930
1254.435547	10824.783203
1252.740234	10918.254883
1251.044922	11054.451172
1249.349609	10995.965820
1247.652344	11152.717773
1245.957031	11248.976563
1244.259766	11333.404297
1242.562500	11280.796875
1240.865234	11309.212891
1239.167969	11181.539063
1237.468750	11065.697266
1235.769531	10929.301758
1234.072266	10941.581055
1232.371094	10759.666992
1230.671875	10766.092773
1228.972656	10813.686523
1227.271484	10479.027344
1225.570313	10416.427734
1223.869141	10378.835938
1222.167969	10254.581055
1220.464844	10109.816406
1218.763672	10032.666016
1217.060547	9958.486328
1215.357422	9810.946289
1213.654297	9593.031250
1211.949219	9711.195313
1210.246094	9543.270508
1208.541016	9459.011719
1206.835938	9411.444336
1205.130859	9315.523438
1203.423828	9241.627930
1201.718750	9343.587891
1200.011719	9249.208984
1198.304688	9356.978516
1196.597656	9373.916992
1194.888672	9423.052734
1193.181641	9239.459961
1191.472656	9279.822266
1189.763672	9229.465820
1188.054688	9262.497070
1186.343750	9219.476563
1184.634766	9085.834961
1182.923828	9139.336914
1181.212891	9262.953125
1179.501953	8999.366211
1177.791016	9071.835938
1176.078125	9090.242188
1174.365234	9059.000000
1172.652344	9221.901367
1170.939453	9240.258789
1169.226563	9422.010742
1167.511719	9380.507813
1165.798828	9289.441406
1164.083984	9052.615234
1162.369141	8964.576172
1160.652344	8853.258789
1158.937500	8781.329102
1157.220703	8665.731445
1155.503906	8617.175781
1153.787109	8487.104492
1152.070313	8448.799805
1150.351563	8592.430664
1148.632813	8587.583008
1146.916016	8623.467773
1145.195313	8737.873047
1143.476563	8853.678711
1141.757813	8837.142578
1140.037109	8662.194336
1138.316406	8664.597656
1136.595703	8749.804688
1134.875000	8685.374023
1133.152344	8559.985352
1131.429688	8272.055664
1129.708984	8116.335449
1127.984375	8099.989258
1126.261719	8137.327637
1124.539063	8038.307129
1122.814453	8194.549805
1121.089844	8011.472656
1119.365234	8011.108398
1117.640625	7875.975098
1115.914063	8158.154297
1114.187500	8070.846680
1112.462891	7974.888672
1110.734375	8032.441406
1109.007813	8006.012695
1107.281250	7999.855957
1105.552734	7935.827637
1103.824219	7795.163574
1102.095703	7709.517090
1100.367188	7665.837891
1098.636719	7458.834473
1096.908203	7379.101074
1095.177734	7338.413574
1093.447266	7319.412109
1091.714844	7284.532227
1089.984375	7334.855469
1088.251953	7157.076172
1086.519531	7181.426270
1084.787109	7220.193359
1083.054688	7153.635742
1081.320313	7176.525391
1079.585938	7146.054199
1077.851563	7233.804199
1076.117188	7151.447266
1074.382813	7099.386230
1072.648438	6952.269531
1070.912109	6989.572266
1069.175781	6972.139648
1067.439453	6931.681152
1065.701172	6871.089844
1063.964844	6800.453125
1062.226563	6803.217773
1060.488281	6780.090820
1058.750000	6893.580078
1057.011719	6797.122559
1055.271484	6702.145508
1053.531250	6871.614746
1051.791016	6893.031250
1050.050781	6798.095215
1048.310547	6974.604004
1046.568359	7007.465332
1044.826172	6972.850098
1043.083984	6883.720215
1041.341797	6933.793457
1039.599609	7022.570801
1037.855469	7290.559570
1036.113281	7264.517578
1034.369141	7429.124023
1032.623047	7410.226074
1030.878906	7438.615234
1029.132813	7552.933594
1027.386719	7609.916504
1025.640625	7714.119629
1023.894531	7801.097168
1022.148438	7866.567871
1020.400391	7840.440918
1018.652344	7787.146973
1016.904297	8054.214844
1015.156250	8015.192383
1013.406250	7964.751953
1011.658203	8111.548340
1009.908203	8073.965820
1008.158203	8179.244141
1006.408203	7947.438477
1004.656250	8131.223145
1002.904297	7996.600586
1001.152344	7994.761719
999.400391	7884.485840
997.648438	7801.363281
995.896484	7694.033691
994.142578	7499.777832
992.388672	7388.289063
990.634766	7365.209961
988.878906	7221.030762
987.125000	7344.723633
985.369141	7142.222656
983.613281	7206.073730
981.857422	7103.342773
980.099609	7131.591797
978.343750	7091.529785
976.585938	7071.401367
974.828125	7143.724121
973.070313	7069.560059
971.310547	7102.045410
969.552734	7140.199707
967.792969	7220.962402
966.033203	7418.173340
964.273438	7480.370117
962.511719	7734.224609
960.750000	8127.079590
958.990234	8194.744141
957.226563	8340.416992
955.464844	8247.698242
953.703125	7942.281738
951.939453	7607.229004
950.175781	7520.412109
948.412109	7202.617676
946.648438	7046.502441
944.882813	6884.791992
943.117188	6786.889648
941.351563	6636.640625
939.585938	6521.851563
937.820313	6473.634766
936.052734	6456.569336
934.285156	6504.585449
932.517578	6538.435059
930.750000	6705.184570
928.982422	6796.931152
927.212891	6629.992676
925.443359	6584.650391
923.673828	6677.771973
921.904297	6766.612305
920.132813	6709.971680
918.361328	6685.825684
916.591797	6711.088379
914.818359	6723.639648
913.046875	6794.023438
911.275391	6616.145020
909.501953	6607.556152
907.728516	6508.748047
905.955078	6518.508789
904.179688	6394.402344
902.406250	6447.855957
900.630859	6397.060059
898.855469	6202.661621
897.080078	6316.654297
895.302734	6351.776855
893.525391	6348.890137
891.750000	6292.546387
889.970703	6257.324707
888.193359	6220.712891
886.416016	6250.190430
884.636719	6217.812500
882.857422	6198.095703
881.078125	6276.724609
879.296875	6099.698730
877.517578	6016.833984
875.736328	5946.641602
873.955078	5859.639648
872.173828	5898.963867
870.390625	5992.979980
868.609375	5807.849609
866.826172	5859.775879
865.042969	5835.977051
863.259766	5866.848633
861.474609	5827.644043
859.689453	5777.250488
857.904297	5915.955566
856.119141	5854.361816
854.333984	5896.389160
852.546875	5885.212402
850.761719	5882.436035
848.974609	5728.577148
847.185547	5843.318848
845.398438	5925.846680
843.609375	5759.501953
841.822266	5835.021484
840.031250	5862.997559
838.242188	5895.150391
836.453125	5836.507324
834.662109	5812.798340
832.871094	5812.831055
831.080078	5783.555176
829.289063	5892.428711
827.496094	5846.406738
825.703125	5857.587402
823.910156	6038.870605
822.117188	5969.146973
820.324219	5938.478027
818.529297	6001.178223
816.734375	6076.385254
814.939453	6137.629883
813.144531	6143.149902
811.347656	6183.467773
809.550781	6183.406250
807.755859	6097.078125
805.957031	6138.768066
804.160156	6002.422852
802.361328	5938.442871
800.564453	5875.882813
798.765625	5742.473633
796.964844	5723.059570
795.166016	5735.604004
793.365234	5874.520508
791.564453	6071.685547
789.763672	6132.721680
787.962891	6153.482422
786.160156	6020.223633
784.359375	5871.768555
782.556641	5845.422363
780.751953	5685.985352
778.949219	5602.861816
777.144531	5647.273926
775.339844	5647.328125
773.535156	5553.188965
771.730469	5513.103516
769.925781	5614.258301
768.119141	5675.223145
766.312500	5673.883789
764.505859	5756.941406
762.697266	5737.600586
760.890625	5927.085938
759.082031	5958.868164
757.273438	5928.434082
755.464844	6108.064941
753.654297	6334.583984
751.845703	6610.721680
750.035156	6799.728516
748.224609	7070.102051
746.412109	7623.304688
744.601563	8311.481445
742.789063	9696.044922
740.976563	12350.292969
739.164063	16779.408203
737.349609	22776.712891
735.537109	29811.814453
733.722656	35462.828125
731.908203	37133.824219
730.091797	34152.718750
728.277344	28076.099609
726.460938	20938.167969
724.644531	15437.365234
722.828125	11700.501953
721.009766	9588.754883
719.193359	8183.583984
717.375000	7378.606445
715.556641	6897.073730
713.736328	6670.035156
711.917969	6385.392090
710.097656	6398.989746
708.277344	6269.743164
706.457031	6093.871582
704.636719	6137.728027
702.814453	6137.645020
700.992188	6111.490723
699.169922	6149.823242
697.347656	6170.308105
695.523438	6134.564941
693.699219	6334.621582
691.875000	6516.766113
690.050781	6541.252930
688.226563	6668.466309
686.400391	6657.296387
684.574219	6587.254883
682.748047	6415.949219
680.921875	6191.350098
679.095703	6218.612305
677.267578	6046.146484
675.439453	6021.460938
673.611328	6002.255371
671.781250	5977.590820
669.953125	5931.072266
668.123047	6150.999512
666.292969	6038.894531
664.460938	6072.964844
662.630859	6141.151367
660.798828	6116.485840
658.966797	6089.102539
657.134766	6194.071777
655.302734	6292.170410
653.468750	6392.949707
651.634766	6342.347168
649.800781	6546.655762
647.966797	6610.507324
646.130859	6519.016113
644.294922	6454.809082
642.458984	6434.208008
640.623047	6311.509766
638.787109	6295.034668
636.949219	6309.864258
635.111328	6426.719238
633.273438	6490.473633
631.435547	6539.239258
629.595703	6684.503418
627.757813	6894.937012
625.917969	6889.217285
624.076172	6816.933105
622.236328	6909.021973
620.394531	6654.814941
618.552734	6460.459473
616.710938	6277.053711
614.869141	6156.151855
613.025391	6016.314941
611.183594	5819.582520
609.339844	5730.060547
607.494141	5572.801270
605.650391	5561.984863
603.804688	5448.197754
601.958984	5518.691895
600.113281	5394.134277
598.267578	5372.537598
596.419922	5294.097168
594.572266	5253.586914
592.724609	5296.981445
590.876953	5253.784180
589.027344	5207.901855
587.179688	5217.474121
585.330078	5201.359375
583.480469	5229.847656
581.628906	5193.470703
579.779297	5325.952637
577.927734	5347.637207
576.076172	5362.560547
574.222656	5392.324219
572.371094	5392.384766
570.517578	5601.559082
568.664063	5779.610840
566.810547	5802.501953
564.955078	5805.159668
563.101563	5922.381348
561.246094	5829.334473
559.390625	5879.133789
557.533203	5714.757324
555.677734	5639.330566
553.820313	5580.094238
551.962891	5467.050293
550.105469	5397.118164
548.246094	5383.719727
546.386719	5405.295898
544.527344	5409.381348
542.667969	5330.118164
540.808594	5367.818359
538.947266	5517.022461
537.085938	5478.089355
535.224609	5401.569824
533.363281	5319.716309
531.500000	5118.431152
529.638672	5083.655273
527.775391	5043.528320
525.910156	5063.783691
524.046875	5358.949707
522.181641	5869.836426
520.316406	6501.117188
518.451172	6100.206543
516.585938	5458.323730
514.718750	5053.835449
512.851563	4889.248535
510.984375	4770.260742
509.117188	4787.857422
507.250000	4818.827637
505.380859	4861.823242
503.511719	4871.359375
501.642578	4720.422852
499.771484	4767.420898
497.902344	4784.991211
496.031250	4721.040527
494.160156	4788.042969
492.287109	4706.758301
490.416016	4658.895020
488.542969	4613.724121
486.669922	4628.634766
484.796875	4680.899902
482.921875	4651.764160
481.046875	4606.636719
479.171875	4538.863770
477.296875	4601.763672
475.421875	4576.671387
473.544922	4679.504395
471.667969	4663.729980
469.791016	4666.607910
467.914063	4693.450684
466.035156	4552.554199
464.156250	4587.395996
462.277344	4607.584961
460.398438	4413.602051
458.519531	4609.366699
456.638672	4585.659180
454.757813	4531.390625
452.876953	4453.227051
450.994141	4539.847656
449.113281	4429.839844
447.230469	4529.704102
445.347656	4503.393066
443.462891	4624.428223
441.580078	4635.263184
439.695313	4656.706055
437.810547	4602.534668
435.925781	4545.736816
434.039063	4567.185059
432.152344	4526.327637
430.267578	4567.646484
428.378906	4453.944336
426.492188	4503.206543
424.603516	4613.356445
422.714844	4662.556641
420.826172	4627.027832
418.937500	4762.208496
417.046875	4673.756836
415.158203	4705.700684
413.265625	4619.948730
411.375000	4585.793457
409.484375	4517.291992
407.591797	4472.606445
405.699219	4512.484863
403.806641	4500.838379
401.912109	4482.595215
400.019531	4416.838867
