#Wave		#Intensity
1585.210938	8357.123047
1584.209961	8252.221680
1583.208984	8267.992188
1582.208008	8338.680664
1581.206055	8324.472656
1580.204102	8290.305664
1579.202148	8353.459961
1578.200195	8384.158203
1577.198242	8359.975586
1576.195313	8258.502930
1575.192383	8346.540039
1574.189453	8339.826172
1573.186523	8225.960938
1572.182617	8214.291992
1571.178711	8167.753418
1570.174805	8215.870117
1569.170898	8221.638672
1568.166992	8222.424805
1567.162109	8160.989258
1566.158203	8114.508789
1565.153320	8247.171875
1564.147461	8223.078125
1563.142578	8208.941406
1562.136719	8207.241211
1561.130859	8277.628906
1560.125000	8166.563477
1559.119141	7963.608398
1558.113281	8287.393555
1557.106445	8196.263672
1556.099609	8403.155273
1555.092773	8185.421875
1554.084961	8096.851074
1553.078125	8115.027832
1552.070313	8135.677734
1551.062500	8071.977539
1550.054688	8350.559570
1549.045898	8078.553711
1548.038086	8230.584961
1547.029297	8238.794922
1546.020508	8229.655273
1545.011719	8133.804199
1544.001953	8263.403320
1542.992188	8353.324219
1541.982422	8302.074219
1540.972656	8357.291992
1539.962891	8325.862305
1538.952148	8435.489258
1537.942383	8305.096680
1536.931641	8300.904297
1535.919922	8262.090820
1534.909180	8070.003906
1533.897461	8273.501953
1532.886719	8244.603516
1531.874023	8349.144531
1530.862305	8125.082031
1529.850586	8172.796875
1528.837891	8309.388672
1527.825195	8184.226074
1526.812500	8224.493164
1525.799805	8291.889648
1524.786133	8184.078125
1523.772461	8325.458008
1522.758789	8143.694824
1521.745117	8139.542480
1520.731445	8209.349609
1519.716797	8146.030762
1518.702148	8072.880859
1517.687500	8103.237793
1516.672852	8027.662598
1515.657227	8129.434570
1514.642578	8184.381836
1513.626953	8081.757324
1512.610352	8254.828125
1511.594727	8066.106445
1510.579102	8172.683594
1509.562500	8202.966797
1508.545898	8019.290039
1507.529297	8091.388184
1506.511719	8018.426758
1505.494141	8041.341797
1504.477539	8066.704590
1503.458984	8136.274902
1502.441406	8137.045410
1501.423828	8093.614746
1500.405273	8133.674316
1499.386719	7992.079102
1498.368164	7943.795898
1497.348633	7978.953613
1496.330078	8112.217773
1495.310547	8088.463867
1494.291016	8045.103516
1493.271484	8006.663574
1492.250977	8134.908203
1491.231445	8040.103027
1490.210938	7999.236816
1489.190430	7902.048828
1488.168945	8118.370605
1487.148438	8168.105957
1486.126953	7973.023438
1485.105469	7912.631836
1484.083984	7886.521973
1483.061523	8036.566895
1482.040039	8137.629883
1481.017578	8091.925293
1479.995117	8007.120117
1478.971680	8115.458984
1477.949219	8235.971680
1476.925781	8124.310547
1475.902344	7993.152344
1474.878906	7979.283203
1473.855469	7984.954102
1472.831055	8012.594238
1471.806641	8059.750000
1470.782227	8075.160645
1469.757813	8019.808594
1468.733398	7998.630371
1467.708008	8018.920898
1466.682617	8107.475586
1465.657227	7942.458984
1464.631836	8299.097656
1463.605469	8280.318359
1462.579102	8283.472656
1461.552734	8201.372070
1460.526367	8311.693359
1459.500000	8314.837891
1458.472656	8276.597656
1457.445313	8282.181641
1456.417969	8263.429688
1455.390625	8439.306641
1454.362305	8328.102539
1453.334961	8263.147461
1452.306641	8436.482422
1451.277344	8442.023438
1450.249023	8362.501953
1449.219727	8491.971680
1448.191406	8171.977051
1447.162109	8357.292969
1446.131836	8399.264648
1445.102539	8404.803711
1444.072266	8492.864258
1443.041992	8350.350586
1442.011719	8268.549805
1440.981445	8424.503906
1439.950195	8502.785156
1438.918945	8433.125977
1437.887695	8351.375000
1436.856445	8308.436523
1435.825195	8447.253906
1434.792969	8210.497070
1433.760742	8310.522461
1432.728516	8294.264648
1431.696289	8353.069336
1430.663086	8324.705078
1429.629883	8218.906250
1428.596680	8142.187012
1427.563477	8188.876953
1426.530273	8143.637695
1425.496094	8151.616211
1424.461914	8053.214355
1423.427734	8254.580078
1422.393555	8204.529297
1421.358398	8106.175781
1420.323242	8097.242188
1419.288086	8056.914551
1418.252930	8146.993652
1417.217773	8239.449219
1416.181641	8083.261230
1415.145508	8098.470215
1414.109375	8060.594727
1413.073242	8128.868164
1412.036133	8045.179688
1411.000000	7937.415039
1409.962891	8097.273438
1408.924805	7987.131348
1407.887695	8009.563477
1406.849609	8063.304199
1405.812500	8090.527832
1404.773438	8137.003906
1403.735352	8048.634277
1402.697266	7977.150391
1401.658203	7975.487793
1400.619141	8002.698730
1399.580078	8061.169922
1398.540039	8088.350586
1397.500977	7992.884766
1396.460938	8157.100586
1395.420898	8217.892578
1394.380859	8002.303223
1393.339844	7899.725098
1392.298828	8087.842285
1391.257813	8035.721680
1390.216797	8096.473145
1389.175781	8001.160645
1388.133789	8035.491699
1387.091797	8096.204102
1386.049805	8099.312012
1385.007813	8001.677734
1383.964844	7976.026367
1382.922852	8096.637695
1381.879883	8056.593262
1380.835938	7913.512207
1379.792969	8043.643555
1378.749023	8010.820801
1377.706055	8162.432617
1376.661133	7918.874512
1375.617188	7974.677246
1374.573242	7891.629395
1373.528320	8040.743652
1372.483398	8091.699707
1371.438477	7994.324707
1370.392578	8038.093262
1369.347656	7904.903320
1368.301758	8070.590332
1367.255859	7858.575684
1366.208984	7957.293945
1365.163086	7993.854980
1364.116211	7987.405273
1363.069336	7942.748535
1362.022461	7879.009277
1360.974609	8011.036621
1359.927734	8030.838867
1358.879883	7938.486816
1357.832031	7955.909180
1356.783203	7973.324219
1355.735352	7923.962402
1354.686523	8027.202637
1353.637695	8051.740723
1352.588867	8000.009277
1351.539063	7938.768555
1350.490234	7751.302246
1349.440430	7830.651855
1348.390625	7926.635254
1347.339844	7913.070801
1346.290039	7782.886719
1345.239258	7966.863281
1344.188477	7760.590820
1343.137695	8032.500977
1342.085938	7907.155762
1341.034180	7931.650391
1339.982422	8029.824219
1338.930664	7892.673340
1337.878906	8104.865723
1336.826172	7875.107422
1335.773438	7932.832031
1334.720703	7883.674805
1333.667969	7903.386230
1332.614258	8022.780762
1331.561523	7964.141113
1330.507813	7905.525879
1329.453125	7994.005371
1328.399414	8070.588867
1327.344727	8045.182129
1326.290039	7849.101074
1325.235352	7809.529785
1324.180664	7852.910645
1323.125000	7955.500977
1322.070313	7951.459473
1321.014648	7847.958496
1319.958008	7865.249023
1318.902344	7948.811035
1317.845703	7935.305664
1316.789063	7872.116699
1315.732422	7868.094727
1314.675781	7812.040527
1313.618164	7800.937500
1312.560547	8038.073730
1311.502930	7937.108398
1310.445313	7807.827148
1309.386719	7999.919922
1308.329102	7868.316895
1307.270508	8041.421387
1306.210938	8042.088379
1305.152344	8066.360840
1304.092773	7906.530273
1303.033203	7801.038574
1301.973633	7992.845703
1300.914063	7892.096680
1299.853516	7855.060059
1298.792969	8037.301758
1297.732422	7988.462891
1296.671875	7942.000977
1295.611328	8121.750977
1294.549805	7865.623535
1293.488281	8104.192383
1292.426758	7737.505371
1291.364258	8008.958008
1290.302734	7922.534180
1289.240234	7956.159180
1288.177734	7719.208496
1287.114258	7759.917969
1286.051758	7772.388672
1284.988281	7697.858887
1283.924805	7792.611328
1282.861328	7922.576660
1281.796875	7829.262695
1280.732422	7926.274902
1279.667969	7863.532227
1278.603516	7648.180664
1277.539063	7759.253906
1276.473633	7759.959961
1275.408203	7786.479004
1274.342773	7646.402832
1273.277344	7900.470703
1272.210938	7713.523926
1271.145508	7843.197266
1270.079102	7939.995117
1269.011719	7598.468750
1267.945313	7627.321777
1266.877930	7606.963867
1265.810547	7649.855469
1264.743164	7617.791504
1263.674805	7726.217285
1262.607422	7743.305664
1261.539063	7701.879395
1260.470703	7492.005371
1259.401367	7628.434570
1258.333008	7622.139160
1257.263672	7664.950195
1256.194336	7689.040039
1255.125000	7699.094727
1254.054688	7690.450684
1252.985352	7574.338867
1251.915039	7682.514160
1250.843750	7713.577637
1249.773438	7590.528320
1248.702148	7567.907227
1247.630859	7661.987305
1246.559570	7725.692871
1245.488281	7474.436523
1244.416016	7598.794922
1243.343750	7676.462891
1242.271484	7567.588379
1241.199219	7493.722656
1240.125977	7743.808594
1239.053711	7716.533203
1237.980469	7579.787598
1236.906250	7538.583984
1235.833008	7746.534668
1234.758789	7549.343262
1233.684570	7594.283691
1232.610352	7490.283691
1231.536133	7539.869629
1230.460938	7563.848633
1229.385742	7506.427734
1228.310547	7553.651855
1227.235352	7645.019043
1226.159180	7603.882813
1225.083008	7592.968750
1224.006836	7658.714844
1222.930664	7554.894531
1221.853516	7583.468750
1220.777344	7637.566406
1219.700195	7575.592285
1218.622070	7720.164551
1217.544922	7604.838867
1216.466797	7549.868164
1215.388672	7569.127441
1214.310547	7523.460449
1213.232422	7628.480957
1212.153320	7573.549316
1211.074219	7634.490234
1209.995117	7621.276855
1208.916016	7696.076660
1207.835938	7643.490723
1206.755859	7618.706543
1205.675781	7686.513184
1204.595703	7377.104980
1203.514648	7653.150391
1202.434570	7487.288086
1201.353516	7538.874512
1200.271484	7349.985840
1199.190430	7443.186523
1198.108398	7337.596191
1197.026367	7361.441406
1195.944336	7655.553223
1194.862305	7464.529297
1193.779297	7250.495605
1192.696289	7694.498047
1191.613281	7570.520996
1190.530273	7324.293945
1189.446289	7588.040039
1188.362305	7406.498535
1187.278320	7312.666016
1186.194336	7647.717285
1185.109375	7431.701172
1184.024414	7446.239258
1182.939453	7398.559082
1181.854492	7486.812988
1180.768555	7409.202637
1179.683594	7363.861816
1178.597656	7431.345215
1177.510742	7524.117188
1176.424805	7278.577637
1175.337891	7403.550781
1174.250977	7250.148926
1173.164063	7393.470703
1172.077148	7410.274902
1170.989258	7332.825195
1169.901367	7338.143066
1168.813477	7423.877441
1167.724609	7449.847168
1166.636719	7388.530273
1165.547852	7334.127441
1164.458984	7495.545410
1163.369141	7461.798828
1162.280273	7356.929199
1161.190430	7398.936035
1160.100586	7358.348633
1159.010742	7340.710938
1157.919922	7235.955078
1156.829102	7442.992676
1155.738281	7377.218750
1154.647461	7350.424805
1153.555664	7243.463867
1152.464844	7125.097168
1151.373047	7398.335938
1150.280273	7360.111328
1149.188477	7138.797852
1148.095703	7249.384766
1147.002930	7339.333496
1145.910156	7388.070313
1144.817383	7180.660156
1143.723633	7279.708496
1142.629883	7369.570313
1141.536133	7299.417480
1140.441406	7286.416504
1139.347656	7218.595215
1138.252930	7456.841797
1137.158203	7338.777344
1136.062500	7220.763672
1134.967773	7331.039063
1133.872070	7306.634766
1132.776367	7172.732910
1131.679688	7360.496094
1130.583984	7276.808594
1129.487305	7234.194824
1128.390625	7458.292480
1127.292969	7401.982910
1126.196289	7393.544434
1125.098633	7362.330078
1124.000977	7522.434082
1122.903320	7295.385254
1121.804688	7205.021973
1120.706055	7299.050781
1119.607422	7240.581543
1118.508789	7207.161621
1117.409180	7112.344238
1116.310547	7317.735840
1115.210938	7261.583984
1114.110352	7194.090820
1113.010742	7174.349121
1111.910156	7247.768555
1110.809570	7237.108887
1109.708984	7265.061035
1108.607422	7202.178223
1107.506836	7341.356934
1106.405273	7162.736328
1105.303711	7197.484375
1104.201172	7071.148438
1103.098633	7183.015625
1101.996094	7254.016602
1100.893555	7207.097168
1099.791016	7327.925781
1098.687500	7149.575195
1097.583984	7297.550293
1096.480469	7248.394531
1095.376953	7210.582520
1094.272461	7315.427246
1093.167969	7171.224609
1092.063477	7228.504395
1090.958008	7190.727539
1089.853516	7150.704102
1088.748047	7189.855957
1087.642578	7219.945313
1086.536133	7252.281738
1085.430664	7347.888672
1084.324219	7115.796875
1083.217773	7233.982910
1082.110352	7139.797363
1081.003906	7382.127441
1079.896484	7287.949219
1078.789063	7166.725098
1077.680664	7038.782715
1076.573242	7179.389648
1075.464844	7071.801270
1074.356445	7234.890625
1073.247070	7210.762207
1072.138672	7132.541016
1071.029297	7085.906250
1069.919922	7217.301758
1068.809570	7109.842285
1067.700195	7160.090332
1066.589844	7223.827148
1065.479492	7276.278320
1064.368164	7175.649902
1063.257813	7205.584473
1062.146484	7039.768555
1061.035156	7186.684570
1059.922852	7135.635742
1058.811523	7179.040527
1057.699219	7033.604004
1056.586914	7198.369141
1055.473633	7129.385254
1054.361328	7186.229004
1053.248047	7249.785156
1052.134766	7212.269043
1051.021484	7168.033691
1049.907227	7105.862305
1048.792969	7135.718262
1047.678711	7262.029297
1046.564453	7195.389648
1045.449219	7070.475098
1044.333984	7145.149902
1043.218750	7112.200195
1042.103516	7103.915527
1040.987305	7030.659180
1039.871094	7015.674805
1038.754883	7079.078613
1037.638672	7182.756836
1036.521484	7163.269531
1035.404297	7154.980469
1034.287109	7081.806152
1033.169922	7075.774414
1032.051758	7174.862793
1030.933594	7063.717285
1029.815430	7091.225098
1028.697266	7065.078613
1027.578125	7063.522949
1026.458984	7151.331543
1025.339844	7107.318359
1024.220703	7061.090332
1023.100586	7043.906738
1021.980469	7017.801270
1020.860352	7083.203613
1019.740234	7097.260254
1018.619141	7144.770020
1017.498047	7091.900879
1016.376953	7010.068848
1015.255859	6943.876465
1014.133789	7022.576660
1013.011719	7023.255371
1011.889648	6899.181641
1010.767578	7066.926270
1009.644531	7045.325684
1008.521484	6879.029297
1007.398438	7031.085449
1006.274414	6967.225586
1005.151367	6903.393066
1004.027344	6815.121582
1002.902344	7022.648926
1001.778320	7078.901367
1000.653320	7137.351563
999.528320	7095.771973
998.403320	7043.101074
997.278320	6994.895020
996.152344	6966.697754
995.026367	6758.665527
993.900391	7043.527832
992.773438	7248.367188
991.646484	6942.779785
990.519531	6996.701172
989.392578	6921.961426
988.265625	6984.731934
987.137695	6998.702148
986.009766	6912.928223
984.881836	6991.167969
983.752930	6934.232910
982.624023	6903.900879
981.495117	6935.586426
980.366211	6971.684570
979.236328	7021.046875
978.106445	7099.155273
976.976563	6925.007324
975.846680	6996.464844
974.715820	7028.083496
973.585938	6893.863770
972.454102	6903.384766
971.323242	7034.451660
970.191406	6924.622070
969.060547	7004.817383
967.927734	7113.687012
966.795898	6800.771484
965.663086	6991.315918
964.530273	6861.751953
963.397461	6928.628906
962.264648	7030.773438
961.130859	7046.853516
959.997070	6798.314453
958.863281	6880.576172
957.729492	6914.310059
956.594727	6890.734375
955.459961	6997.152832
954.325195	7022.025879
953.189453	6857.502441
952.053711	7137.787109
950.917969	6927.084961
949.782227	6749.486328
948.646484	6862.391113
947.509766	6843.263184
946.373047	6828.541992
945.235352	6912.768555
944.098633	6854.072266
942.960938	6780.017578
941.823242	6875.183105
940.685547	6867.058105
939.546875	6913.842773
938.408203	6861.795898
937.269531	6941.489258
936.129883	7010.171875
934.991211	6953.748047
933.851563	6855.666504
932.711914	6904.580566
931.571289	7049.956543
930.431641	7160.189941
929.291016	6985.432617
928.149414	6926.894531
927.008789	6920.963379
925.867188	6879.988281
924.725586	6893.777832
923.583984	6828.742188
922.441406	6956.359375
921.299805	7051.092285
920.157227	6920.425781
919.013672	7034.810059
917.871094	6862.651855
916.727539	6939.827148
915.583984	6922.970215
914.439453	6938.902344
913.295898	6900.202148
912.151367	6951.083008
911.006836	6892.740234
909.861328	6884.643555
908.716797	6950.773438
907.571289	6899.015625
906.424805	6873.464844
905.279297	6799.930664
904.132813	6732.972168
902.986328	6781.613770
901.839844	6865.114746
900.692383	6887.548828
899.545898	6923.046875
898.398438	6960.706543
897.250000	6837.166992
896.102539	6874.828125
894.954102	6844.979980
893.805664	6900.034180
892.656250	6894.130371
891.507813	6920.864258
890.358398	6734.415527
889.208984	6896.003906
888.058594	6848.793945
886.908203	6834.210449
885.758789	6963.066406
884.607422	6811.579102
883.457031	6781.806152
882.305664	6710.782227
881.154297	6783.094727
880.002930	6918.327148
878.850586	6845.147949
877.698242	6750.303711
876.545898	6774.814453
875.393555	6714.728516
874.240234	6685.026367
873.086914	6731.211914
871.933594	6749.200195
870.780273	6760.679199
869.625977	6720.159180
868.471680	6679.656738
867.317383	6554.720703
866.162109	6678.807129
865.007813	6696.779297
863.852539	6647.660645
862.696289	6698.082520
861.541016	6690.081055
860.384766	6757.769531
859.228516	6723.812988
858.072266	6728.778320
856.915039	6688.359375
855.757813	6732.218750
854.600586	6700.456543
853.442383	6796.121582
852.285156	6736.290039
851.126953	6743.400879
849.968750	6854.096191
848.809570	6595.791016
847.650391	6814.324219
846.491211	6776.119629
845.332031	6662.466797
844.171875	6708.382813
843.012695	6693.933105
841.851563	6733.355957
840.691406	6481.945313
839.530273	6650.619629
838.369141	6685.717285
837.208008	6710.035156
836.046875	6708.514648
834.884766	6715.601074
833.722656	6750.650391
832.560547	6551.249023
831.397461	6575.566895
830.234375	6634.269531
829.071289	6591.928223
827.908203	6745.147949
826.744141	6625.458984
825.580078	6596.033691
824.416016	6568.768066
823.251953	6474.961914
822.086914	6668.812500
820.921875	6472.021973
819.756836	6659.348145
818.590820	6694.299316
817.425781	6501.923828
816.259766	6436.128418
815.092773	6653.298828
813.926758	6581.068848
812.759766	6577.430664
811.592773	6569.509277
810.424805	6563.732422
809.257813	6498.009277
808.089844	6492.250488
806.920898	6418.012207
805.752930	6480.738770
804.583984	6588.357422
803.415039	6407.216797
802.246094	6570.392578
801.076172	6611.648926
799.906250	6601.595215
798.736328	6305.235352
797.566406	6361.476074
796.395508	6498.845703
795.224609	6552.880371
794.053711	6587.677246
792.881836	6524.284180
791.710938	6531.332520
790.538086	6337.852051
789.366211	6336.407715
788.194336	6309.375977
787.021484	6346.309570
785.848633	6285.186035
784.674805	6471.263672
783.500977	6408.008301
782.327148	6498.129395
781.153320	6458.318359
779.979492	6407.880859
778.804688	6385.134766
777.629883	6441.130371
776.454102	6501.354980
775.279297	6412.666504
774.103516	6479.248047
772.927734	6316.196289
771.750977	6410.399414
770.575195	6464.184570
769.398438	6367.105957
768.220703	6348.658691
767.043945	6455.507813
765.866211	6352.126465
764.688477	6359.164551
763.510742	6502.011230
762.332031	6307.460938
761.153320	6407.831055
759.974609	6344.867676
758.794922	6657.195313
757.616211	6369.520996
756.436523	6410.446777
755.255859	6351.775879
754.076172	6401.158691
752.895508	6420.870605
751.714844	6385.525391
750.533203	6280.343750
749.352539	6327.579102
748.170898	6330.361816
746.988281	6358.525879
745.806641	6420.513184
744.624023	6330.241699
743.441406	6320.335938
742.258789	6257.601074
741.075195	6285.747070
739.891602	6332.890625
738.708008	6303.984863
737.523438	6351.102051
736.339844	6275.763672
735.155273	6301.760254
733.969727	6382.603027
732.785156	6343.168945
731.599609	6215.174805
730.414063	6378.211914
729.227539	6427.340820
728.041992	6229.865723
726.855469	6300.075684
725.667969	6182.768555
724.481445	6322.457031
723.293945	6299.949707
722.106445	6275.346680
720.918945	6290.742676
719.730469	6329.276855
718.541992	6102.731445
717.353516	6282.203125
716.164063	6150.392578
714.975586	6243.579102
713.786133	6158.075195
712.595703	6200.786621
711.406250	6253.981445
710.215820	6210.538086
709.025391	6259.505859
707.833984	6125.809570
706.642578	6120.203613
705.451172	6185.943359
704.259766	6155.150879
703.068359	6191.488281
701.875977	6301.199707
700.683594	6224.278809
699.490234	6118.049805
698.297852	6074.732910
697.104492	6127.804688
695.910156	6241.591309
694.716797	6181.522461
693.522461	6257.560059
692.328125	6243.561523
691.132813	6193.994629
689.938477	6215.581543
688.743164	6103.295410
687.547852	6195.990234
686.351563	6146.478027
685.155273	6285.103027
683.958984	6114.391113
682.762695	6261.315430
681.565430	6186.767578
680.368164	6323.165039
679.170898	6173.477539
677.973633	6167.880371
676.775391	6287.492188
675.577148	6208.849609
674.378906	6240.791016
673.179688	6287.314941
671.980469	6281.695801
670.781250	6282.331543
669.581055	6322.560547
668.381836	6246.099121
667.181641	6388.380859
665.980469	6370.247559
664.780273	6437.482910
663.579102	6377.715820
662.377930	6465.728027
661.175781	6370.611328
659.973633	6392.021484
658.771484	6334.397461
657.569336	6260.166992
656.367188	6422.932617
655.164063	6502.497070
653.960938	6397.112793
652.756836	6493.262695
651.552734	6545.757324
650.348633	6369.843262
649.144531	6391.205078
647.939453	6595.179688
646.735352	6473.318848
645.529297	6492.565918
644.324219	6501.435059
643.118164	6499.932617
641.912109	6382.350098
640.706055	6428.540039
639.499023	6354.537598
638.292969	6379.997559
637.084961	6372.309570
635.877930	6370.836426
634.669922	6359.013672
633.461914	6324.431152
632.253906	6401.592285
631.044922	6468.374023
629.836914	6204.232422
628.626953	6254.487305
627.417969	6286.114746
626.208008	6111.062500
624.998047	6072.458008
623.788086	6302.410156
622.577148	6236.930176
621.366211	6206.581055
620.155273	6068.904297
618.944336	6232.601563
617.732422	6241.476074
616.520508	6277.162109
615.308594	6294.270020
614.095703	6230.957520
612.882813	6246.005859
611.669922	6256.925781
610.457031	6226.630859
609.243164	6208.709473
608.029297	6248.461426
606.815430	6306.725586
605.600586	6000.603516
604.385742	6151.509277
603.170898	6069.839355
601.955078	6191.859375
600.740234	6159.575684
599.524414	6059.454102
598.307617	6156.722168
597.091797	6147.075195
595.875000	6176.471680
594.658203	6049.731934
593.440430	6031.900391
592.222656	6116.740723
591.004883	6059.897461
589.787109	6011.289063
588.568359	6067.348145
587.349609	6078.250000
586.130859	6093.248535
584.912109	6118.491699
583.692383	6063.774414
582.472656	6080.814453
581.251953	6030.228516
580.032227	6202.955566
578.811523	6213.805664
577.589844	6152.985352
576.369141	6208.877441
575.147461	6197.204590
573.925781	6030.028809
572.703125	6139.097168
571.481445	6014.960938
570.258789	6105.579102
569.035156	6159.357910
567.812500	6276.469238
566.588867	6060.465332
565.365234	6206.144043
564.140625	6243.509277
562.916992	6180.804199
561.692383	6224.281738
560.466797	6316.721191
559.242188	6233.636719
558.016602	6201.590332
556.791016	6194.033203
555.564453	6170.166504
554.337891	6134.078613
553.111328	6297.741699
551.884766	6198.474121
550.657227	6229.630371
549.429688	6175.230957
548.202148	6204.340820
546.974609	6233.437012
545.746094	6354.106445
544.517578	6326.179688
543.288086	6220.960938
542.058594	6302.904785
540.829102	6352.276367
539.599609	6411.789063
538.370117	6144.051758
537.139648	6219.839844
535.909180	6397.167480
534.677734	6283.976563
533.446289	6286.578613
532.214844	6337.901367
530.983398	6301.926758
529.750977	6339.017090
528.519531	6420.720703
527.286133	6344.187012
526.053711	6358.936035
524.820313	6442.604004
523.586914	6341.795898
522.353516	6393.007813
521.119141	6383.419922
519.884766	6341.430664
518.650391	6337.933105
517.415039	6401.243164
516.179688	6415.948730
514.944336	6434.693848
513.708984	6330.025391
