#Wave		#Intensity
1585.210938	22288.992188
1584.209961	22513.779297
1583.208984	22331.818359
1582.208008	22322.199219
1581.206055	22150.335938
1580.204102	22310.455078
1579.202148	22183.576172
1578.200195	22196.441406
1577.198242	22316.544922
1576.195313	22122.416016
1575.192383	22289.849609
1574.189453	22160.609375
1573.186523	22305.537109
1572.182617	22104.093750
1571.178711	21952.550781
1570.174805	21679.039063
1569.170898	21472.867188
1568.166992	21697.443359
1567.162109	21931.880859
1566.158203	21748.177734
1565.153320	21790.943359
1564.147461	21659.578125
1563.142578	21714.775391
1562.136719	21864.427734
1561.130859	21874.816406
1560.125000	22156.091797
1559.119141	22414.886719
1558.113281	22422.666016
1557.106445	22457.763672
1556.099609	22775.929688
1555.092773	22882.933594
1554.084961	22915.427734
1553.078125	23191.111328
1552.070313	23565.925781
1551.062500	23675.154297
1550.054688	24052.191406
1549.045898	24324.927734
1548.038086	24954.539063
1547.029297	25214.580078
1546.020508	25608.328125
1545.011719	26123.312500
1544.001953	26776.796875
1542.992188	27229.410156
1541.982422	27696.691406
1540.972656	28195.958984
1539.962891	28484.644531
1538.952148	28513.390625
1537.942383	28772.201172
1536.931641	28897.335938
1535.919922	28789.962891
1534.909180	28667.798828
1533.897461	28459.166016
1532.886719	27857.664063
1531.874023	27382.427734
1530.862305	26946.912109
1529.850586	26504.166016
1528.837891	25873.929688
1527.825195	25592.062500
1526.812500	25152.335938
1525.799805	24517.833984
1524.786133	24135.257813
1523.772461	23708.437500
1522.758789	23138.748047
1521.745117	23202.998047
1520.731445	23146.421875
1519.716797	22737.408203
1518.702148	23023.482422
1517.687500	22668.863281
1516.672852	22654.316406
1515.657227	22501.861328
1514.642578	22731.111328
1513.626953	22477.771484
1512.610352	22537.107422
1511.594727	22402.023438
1510.579102	22604.039063
1509.562500	22085.287109
1508.545898	22464.341797
1507.529297	22353.966797
1506.511719	22727.888672
1505.494141	22401.232422
1504.477539	22799.558594
1503.458984	22443.541016
1502.441406	22252.228516
1501.423828	22436.699219
1500.405273	22338.757813
1499.386719	22260.492188
1498.368164	22520.919922
1497.348633	22410.750000
1496.330078	22491.962891
1495.310547	22264.123047
1494.291016	22514.519531
1493.271484	22281.863281
1492.250977	22691.466797
1491.231445	22760.279297
1490.210938	22260.664063
1489.190430	22454.458984
1488.168945	22346.947266
1487.148438	22636.132813
1486.126953	22440.500000
1485.105469	22810.308594
1484.083984	22612.271484
1483.061523	22825.318359
1482.040039	23106.759766
1481.017578	22818.300781
1479.995117	23055.617188
1478.971680	23280.611328
1477.949219	23539.726563
1476.925781	23781.628906
1475.902344	24243.291016
1474.878906	24162.548828
1473.855469	24391.958984
1472.831055	24970.388672
1471.806641	25075.048828
1470.782227	25179.664063
1469.757813	25818.562500
1468.733398	26130.322266
1467.708008	26683.398438
1466.682617	27050.927734
1465.657227	27771.789063
1464.631836	28482.601563
1463.605469	29173.623047
1462.579102	29764.464844
1461.552734	30900.683594
1460.526367	31471.437500
1459.500000	31669.429688
1458.472656	32804.539063
1457.445313	33394.007813
1456.417969	33613.371094
1455.390625	33757.226563
1454.362305	33784.269531
1453.334961	33548.671875
1452.306641	32953.339844
1451.277344	32324.222656
1450.249023	31768.271484
1449.219727	30714.453125
1448.191406	30180.927734
1447.162109	29409.607422
1446.131836	28339.931641
1445.102539	27714.972656
1444.072266	27163.089844
1443.041992	26436.708984
1442.011719	25897.449219
1440.981445	25906.621094
1439.950195	24938.429688
1438.918945	25158.746094
1437.887695	24411.710938
1436.856445	24387.248047
1435.825195	24101.087891
1434.792969	24076.695313
1433.760742	23865.804688
1432.728516	23558.132813
1431.696289	23407.962891
1430.663086	23303.847656
1429.629883	23124.750000
1428.596680	23175.591797
1427.563477	23032.880859
1426.530273	22725.755859
1425.496094	22631.556641
1424.461914	22595.419922
1423.427734	22452.939453
1422.393555	22554.601563
1421.358398	22146.410156
1420.323242	22120.060547
1419.288086	21859.453125
1418.252930	22096.367188
1417.217773	22091.767578
1416.181641	22203.021484
1415.145508	21877.453125
1414.109375	22138.287109
1413.073242	22230.162109
1412.036133	22032.603516
1411.000000	22247.425781
1409.962891	22409.125000
1408.924805	22279.130859
1407.887695	22778.099609
1406.849609	23062.447266
1405.812500	23226.246094
1404.773438	23808.984375
1403.735352	23938.847656
1402.697266	24432.130859
1401.658203	24609.939453
1400.619141	25160.619141
1399.580078	24910.001953
1398.540039	25013.037109
1397.500977	25257.900391
1396.460938	25476.214844
1395.420898	25127.187500
1394.380859	25201.248047
1393.339844	25075.861328
1392.298828	24859.246094
1391.257813	24930.910156
1390.216797	24880.087891
1389.175781	24860.492188
1388.133789	24809.701172
1387.091797	24545.367188
1386.049805	24998.468750
1385.007813	25034.025391
1383.964844	25249.421875
1382.922852	25397.595703
1381.879883	25723.089844
1380.835938	26017.289063
1379.792969	26256.255859
1378.749023	26499.910156
1377.706055	26602.152344
1376.661133	27049.169922
1375.617188	26890.296875
1374.573242	27059.408203
1373.528320	27029.822266
1372.483398	27105.519531
1371.438477	27353.412109
1370.392578	27350.083984
1369.347656	27370.667969
1368.301758	27188.041016
1367.255859	27485.894531
1366.208984	27026.125000
1365.163086	27397.945313
1364.116211	27277.562500
1363.069336	27114.240234
1362.022461	27249.433594
1360.974609	27441.857422
1359.927734	27374.062500
1358.879883	27382.648438
1357.832031	27403.158203
1356.783203	27421.269531
1355.735352	27611.062500
1354.686523	28239.445313
1353.637695	28633.972656
1352.588867	28685.167969
1351.539063	29096.109375
1350.490234	29423.505859
1349.440430	30122.289063
1348.390625	30987.453125
1347.339844	31099.986328
1346.290039	32100.244141
1345.239258	32369.544922
1344.188477	32612.562500
1343.137695	33331.191406
1342.085938	33773.660156
1341.034180	34370.484375
1339.982422	34819.675781
1338.930664	35197.378906
1337.878906	35199.496094
1336.826172	35671.980469
1335.773438	35728.621094
1334.720703	35896.839844
1333.667969	36008.007813
1332.614258	35696.625000
1331.561523	35814.902344
1330.507813	35071.875000
1329.453125	34839.156250
1328.399414	34222.332031
1327.344727	33963.804688
1326.290039	33446.984375
1325.235352	33025.183594
1324.180664	32724.410156
1323.125000	32129.990234
1322.070313	32255.876953
1321.014648	32725.085938
1319.958008	32171.283203
1318.902344	32027.222656
1317.845703	31845.353516
1316.789063	32037.408203
1315.732422	31186.136719
1314.675781	30635.591797
1313.618164	30317.011719
1312.560547	29570.654297
1311.502930	29221.701172
1310.445313	28423.894531
1309.386719	27895.763672
1308.329102	27495.408203
1307.270508	26674.847656
1306.210938	26081.300781
1305.152344	25778.361328
1304.092773	25602.998047
1303.033203	25014.765625
1301.973633	24830.195313
1300.914063	24777.787109
1299.853516	24131.140625
1298.792969	24135.482422
1297.732422	24019.603516
1296.671875	23972.117188
1295.611328	23766.783203
1294.549805	23693.453125
1293.488281	23754.398438
1292.426758	23749.384766
1291.364258	23626.662109
1290.302734	23812.322266
1289.240234	23722.578125
1288.177734	23439.949219
1287.114258	23578.484375
1286.051758	23451.212891
1284.988281	23462.716797
1283.924805	23455.408203
1282.861328	23481.003906
1281.796875	23499.537109
1280.732422	23572.093750
1279.667969	23630.525391
1278.603516	23731.197266
1277.539063	23852.957031
1276.473633	23876.076172
1275.408203	23610.537109
1274.342773	23948.093750
1273.277344	23940.679688
1272.210938	24024.730469
1271.145508	24085.298828
1270.079102	24068.476563
1269.011719	23763.378906
1267.945313	24079.373047
1266.877930	23605.718750
1265.810547	23596.033203
1264.743164	23356.855469
1263.674805	23169.287109
1262.607422	22897.527344
1261.539063	22756.935547
1260.470703	22323.929688
1259.401367	22113.337891
1258.333008	22192.843750
1257.263672	21996.396484
1256.194336	21891.203125
1255.125000	21521.939453
1254.054688	21363.140625
1252.985352	21428.697266
1251.915039	21129.833984
1250.843750	21158.042969
1249.773438	20910.726563
1248.702148	20640.171875
1247.630859	20817.826172
1246.559570	20491.402344
1245.488281	20622.353516
1244.416016	20347.417969
1243.343750	20077.261719
1242.271484	20138.271484
1241.199219	20213.238281
1240.125977	19989.886719
1239.053711	19824.873047
1237.980469	20125.804688
1236.906250	19870.001953
1235.833008	19991.507813
1234.758789	19924.398438
1233.684570	19624.580078
1232.610352	19839.128906
1231.536133	19932.613281
1230.460938	20070.250000
1229.385742	19679.955078
1228.310547	19901.279297
1227.235352	20289.867188
1226.159180	20020.615234
1225.083008	20174.341797
1224.006836	20070.154297
1222.930664	20263.281250
1221.853516	20326.296875
1220.777344	20321.960938
1219.700195	20264.244141
1218.622070	20343.457031
1217.544922	20538.632813
1216.466797	20490.179688
1215.388672	20822.056641
1214.310547	20993.816406
1213.232422	21144.638672
1212.153320	21121.582031
1211.074219	21536.445313
1209.995117	21631.453125
1208.916016	21684.732422
1207.835938	21856.076172
1206.755859	21675.462891
1205.675781	21897.652344
1204.595703	21754.128906
1203.514648	21763.357422
1202.434570	21777.207031
1201.353516	21471.917969
1200.271484	21929.732422
1199.190430	21525.140625
1198.108398	21599.109375
1197.026367	21210.933594
1195.944336	21019.275391
1194.862305	21162.585938
1193.779297	20772.439453
1192.696289	20982.685547
1191.613281	20516.574219
1190.530273	20618.326172
1189.446289	20535.464844
1188.362305	20171.232422
1187.278320	20169.214844
1186.194336	19736.044922
1185.109375	19994.595703
1184.024414	19676.876953
1182.939453	19430.722656
1181.854492	19491.054688
1180.768555	19348.681641
1179.683594	18936.958984
1178.597656	18962.822266
1177.510742	19062.324219
1176.424805	18786.693359
1175.337891	18699.832031
1174.250977	18751.019531
1173.164063	18760.787109
1172.077148	18931.494141
1170.989258	18892.943359
1169.901367	18521.169922
1168.813477	18786.017578
1167.724609	18683.197266
1166.636719	18947.892578
1165.547852	18808.339844
1164.458984	18985.654297
1163.369141	18940.253906
1162.280273	19080.744141
1161.190430	19145.462891
1160.100586	19338.603516
1159.010742	19384.888672
1157.919922	19428.861328
1156.829102	19468.228516
1155.738281	19505.283203
1154.647461	19597.312500
1153.555664	19606.833984
1152.464844	19639.250000
1151.373047	19531.974609
1150.280273	19367.509766
1149.188477	19464.039063
1148.095703	19425.513672
1147.002930	19366.414063
1145.910156	19616.126953
1144.817383	19218.556641
1143.723633	19264.707031
1142.629883	19271.974609
1141.536133	18945.576172
1140.441406	18802.107422
1139.347656	18816.318359
1138.252930	18718.613281
1137.158203	18783.068359
1136.062500	18858.908203
1134.967773	18464.541016
1133.872070	18506.185547
1132.776367	18493.056641
1131.679688	18331.673828
1130.583984	18501.017578
1129.487305	18645.208984
1128.390625	18773.378906
1127.292969	18575.603516
1126.196289	18651.326172
1125.098633	18553.890625
1124.000977	18415.501953
1122.903320	18707.517578
1121.804688	18443.945313
1120.706055	18439.947266
1119.607422	18324.451172
1118.508789	18372.802734
1117.409180	18180.035156
1116.310547	18519.464844
1115.210938	18490.439453
1114.110352	18413.689453
1113.010742	18286.976563
1111.910156	18523.841797
1110.809570	18322.197266
1109.708984	18213.750000
1108.607422	18266.558594
1107.506836	18142.277344
1106.405273	18018.048828
1105.303711	18084.474609
1104.201172	17853.685547
1103.098633	18153.728516
1101.996094	17750.685547
1100.893555	17887.384766
1099.791016	17958.291016
1098.687500	17652.992188
1097.583984	17819.072266
1096.480469	18043.970703
1095.376953	17779.611328
1094.272461	17827.816406
1093.167969	17962.015625
1092.063477	18136.892578
1090.958008	18112.578125
1089.853516	18271.507813
1088.748047	18489.169922
1087.642578	18647.945313
1086.536133	18625.794922
1085.430664	18752.824219
1084.324219	19042.496094
1083.217773	19121.933594
1082.110352	19332.339844
1081.003906	19637.498047
1079.896484	19863.500000
1078.789063	19969.769531
1077.680664	19832.261719
1076.573242	19938.488281
1075.464844	20125.873047
1074.356445	19923.011719
1073.247070	20130.609375
1072.138672	19815.119141
1071.029297	20031.660156
1069.919922	19673.513672
1068.809570	19369.589844
1067.700195	19124.355469
1066.589844	19138.187500
1065.479492	19170.021484
1064.368164	19012.771484
1063.257813	18925.347656
1062.146484	18853.710938
1061.035156	18269.250000
1059.922852	18209.027344
1058.811523	18175.810547
1057.699219	18090.906250
1056.586914	18012.779297
1055.473633	17900.980469
1054.361328	17926.259766
1053.248047	17810.035156
1052.134766	17633.234375
1051.021484	17791.001953
1049.907227	17578.367188
1048.792969	17603.683594
1047.678711	17528.029297
1046.564453	17578.013672
1045.449219	17441.851563
1044.333984	17496.312500
1043.218750	17252.632813
1042.103516	17497.593750
1040.987305	17643.863281
1039.871094	17431.666016
1038.754883	17353.933594
1037.638672	17509.087891
1036.521484	17605.972656
1035.404297	17606.578125
1034.287109	17687.734375
1033.169922	17610.021484
1032.051758	17749.287109
1030.933594	17830.351563
1029.815430	17502.269531
1028.697266	17733.101563
1027.578125	17467.750000
1026.458984	17597.949219
1025.339844	17649.914063
1024.220703	17520.972656
1023.100586	17450.134766
1021.980469	17758.787109
1020.860352	17685.693359
1019.740234	17788.888672
1018.619141	17733.662109
1017.498047	17879.171875
1016.376953	17739.218750
1015.255859	17637.222656
1014.133789	17619.958984
1013.011719	17440.044922
1011.889648	17540.896484
1010.767578	17704.064453
1009.644531	17624.447266
1008.521484	17542.638672
1007.398438	17759.111328
1006.274414	17721.808594
1005.151367	17473.171875
1004.027344	17527.140625
1002.902344	17481.013672
1001.778320	17588.314453
1000.653320	17968.964844
999.528320	17822.765625
998.403320	17609.974609
997.278320	17728.250000
996.152344	17735.431641
995.026367	17689.320313
993.900391	17696.503906
992.773438	18056.556641
991.646484	18139.093750
990.519531	18232.683594
989.392578	18179.851563
988.265625	18344.345703
987.137695	18242.736328
986.009766	18624.345703
984.881836	18349.876953
983.752930	18689.197266
982.624023	18753.714844
981.495117	18709.695313
980.366211	18373.455078
979.236328	18542.027344
978.106445	18296.701172
976.976563	18230.689453
975.846680	18034.201172
974.715820	17979.333984
973.585938	18001.873047
972.454102	17836.507813
971.323242	17739.724609
970.191406	17680.544922
969.060547	17515.357422
967.927734	17504.837891
966.795898	17432.496094
965.663086	17437.451172
964.530273	17422.537109
963.397461	17423.074219
962.264648	17747.904297
961.130859	17552.068359
959.997070	17896.568359
958.863281	17868.333984
957.729492	17602.066406
956.594727	17792.064453
955.459961	17664.726563
954.325195	17843.611328
953.189453	17419.025391
952.053711	17503.208984
950.917969	17358.433594
949.782227	17433.789063
948.646484	17218.683594
947.509766	17456.810547
946.373047	17320.964844
945.235352	17532.576172
944.098633	17194.533203
942.960938	17386.294922
941.823242	17200.042969
940.685547	17288.466797
939.546875	17600.869141
938.408203	17236.832031
937.269531	17292.253906
936.129883	17600.052734
934.991211	17951.597656
933.851563	17800.599609
932.711914	17842.681641
931.571289	17825.535156
930.431641	17955.283203
929.291016	17953.460938
928.149414	18019.568359
927.008789	18000.201172
925.867188	18035.601563
924.725586	17985.578125
923.583984	17887.408203
922.441406	17791.468750
921.299805	17752.470703
920.157227	17825.074219
919.013672	17447.029297
917.871094	17132.574219
916.727539	17273.041016
915.583984	16958.763672
914.439453	16972.445313
913.295898	17115.035156
912.151367	17174.548828
911.006836	17127.017578
909.861328	16867.705078
908.716797	17071.308594
907.571289	17058.748047
906.424805	16915.269531
905.279297	16924.562500
904.132813	16759.365234
902.986328	16877.714844
901.839844	16734.398438
900.692383	16641.277344
899.545898	16818.406250
898.398438	16810.269531
897.250000	16784.710938
896.102539	16733.031250
894.954102	16663.955078
893.805664	16792.986328
892.656250	16656.462891
891.507813	16746.271484
890.358398	16709.876953
889.208984	16645.226563
888.058594	16791.503906
886.908203	16437.753906
885.758789	16647.031250
884.607422	16767.130859
883.457031	16719.912109
882.305664	16481.593750
881.154297	16645.072266
880.002930	16658.689453
878.850586	16637.572266
877.698242	16486.277344
876.545898	16593.197266
875.393555	16520.054688
874.240234	16485.972656
873.086914	16391.205078
871.933594	16545.726563
870.780273	16368.644531
869.625977	16575.093750
868.471680	16356.928711
867.317383	16095.552734
866.162109	16420.990234
865.007813	16291.745117
863.852539	16266.427734
862.696289	16349.292969
861.541016	16378.044922
860.384766	16171.072266
859.228516	15953.381836
858.072266	16157.281250
856.915039	16192.529297
855.757813	16113.250000
854.600586	16154.968750
853.442383	16192.347656
852.285156	16197.323242
851.126953	16146.170898
849.968750	16060.511719
848.809570	16061.193359
847.650391	16115.801758
846.491211	16213.515625
845.332031	16274.530273
844.171875	16184.620117
843.012695	15954.664063
841.851563	16196.683594
840.691406	16186.553711
839.530273	16150.581055
838.369141	16065.100586
837.208008	16192.776367
836.046875	16103.017578
834.884766	16187.589844
833.722656	16338.810547
832.560547	16150.140625
831.397461	16236.790039
830.234375	15955.784180
829.071289	16210.082031
827.908203	16077.475586
826.744141	16146.871094
825.580078	16186.164063
824.416016	16079.416992
823.251953	16187.404297
822.086914	16233.096680
820.921875	16216.535156
819.756836	16232.161133
818.590820	16091.199219
817.425781	16471.398438
816.259766	16139.631836
815.092773	16146.681641
813.926758	16299.449219
812.759766	16265.750000
811.592773	16225.638672
810.424805	16072.043945
809.257813	16049.120117
808.089844	16079.718750
806.920898	15898.436523
805.752930	15965.425781
804.583984	16126.501953
803.415039	15904.696289
802.246094	16052.881836
801.076172	16000.062500
799.906250	15955.814453
798.736328	16176.529297
797.566406	16198.479492
796.395508	16132.856445
795.224609	16285.049805
794.053711	16332.572266
792.881836	16422.755859
791.710938	16457.421875
790.538086	16634.996094
789.366211	16998.037109
788.194336	17162.611328
787.021484	17252.496094
785.848633	17451.035156
784.674805	17308.552734
783.500977	17259.867188
782.327148	17070.634766
781.153320	16953.884766
779.979492	16737.128906
778.804688	16646.046875
777.629883	16678.419922
776.454102	16483.146484
775.279297	16600.617188
774.103516	16741.425781
772.927734	16350.678711
771.750977	16525.482422
770.575195	16623.707031
769.398438	16774.998047
768.220703	16977.193359
767.043945	17058.253906
765.866211	17050.109375
764.688477	17351.859375
763.510742	17417.919922
762.332031	17730.054688
761.153320	18001.742188
759.974609	18612.601563
758.794922	19100.214844
757.616211	19786.847656
756.436523	20699.914063
755.255859	21695.191406
754.076172	23545.757813
752.895508	25291.707031
751.714844	27976.900391
750.533203	30004.673828
749.352539	33417.660156
748.170898	35999.703125
746.988281	37933.281250
745.806641	39722.167969
744.624023	40355.820313
743.441406	40481.859375
742.258789	40026.667969
741.075195	39225.171875
739.891602	38683.867188
738.708008	38123.796875
737.523438	38015.820313
736.339844	37494.152344
735.155273	37143.664063
733.969727	36274.285156
732.785156	35173.261719
731.599609	33399.972656
730.414063	31463.035156
729.227539	29628.166016
728.041992	27037.533203
726.855469	24901.101563
725.667969	23186.962891
724.481445	21623.138672
723.293945	20569.587891
722.106445	19505.992188
720.918945	18863.810547
719.730469	18306.087891
718.541992	17769.656250
717.353516	17635.177734
716.164063	17094.937500
714.975586	17095.214844
713.786133	16956.775391
712.595703	16873.031250
711.406250	16715.796875
710.215820	16556.535156
709.025391	16433.041016
707.833984	16523.730469
706.642578	16417.089844
705.451172	16579.083984
704.259766	16587.859375
703.068359	16730.861328
701.875977	16823.468750
700.683594	16765.091797
699.490234	17058.859375
698.297852	17597.658203
697.104492	18159.251953
695.910156	18770.853516
694.716797	19101.574219
693.522461	19520.070313
692.328125	19438.134766
691.132813	19555.027344
689.938477	19462.658203
688.743164	19439.351563
687.547852	19054.291016
686.351563	18587.871094
685.155273	18443.546875
683.958984	18205.255859
682.762695	17896.039063
681.565430	17751.970703
680.368164	17442.998047
679.170898	17123.728516
677.973633	17228.320313
676.775391	17090.792969
675.577148	17232.894531
674.378906	17120.458984
673.179688	17279.167969
671.980469	16874.890625
670.781250	17000.230469
669.581055	17000.476563
668.381836	16715.294922
667.181641	16532.304688
665.980469	16368.141602
664.780273	16458.054688
663.579102	16223.209961
662.377930	16346.409180
661.175781	16367.602539
659.973633	16424.146484
658.771484	16264.387695
657.569336	16241.920898
656.367188	16468.898438
655.164063	16221.953125
653.960938	16712.691406
652.756836	16760.761719
651.552734	16991.556641
650.348633	17257.541016
649.144531	17440.371094
647.939453	17716.503906
646.735352	17926.113281
645.529297	17965.531250
644.324219	18112.769531
643.118164	18181.152344
641.912109	18141.710938
640.706055	17575.902344
639.499023	17866.050781
638.292969	17389.634766
637.084961	17178.521484
635.877930	16919.882813
634.669922	16791.771484
633.461914	16754.775391
632.253906	16541.929688
631.044922	16424.333984
629.836914	16507.394531
628.626953	16085.920898
627.417969	16257.906250
626.208008	16037.147461
624.998047	15952.857422
623.788086	16019.400391
622.577148	15819.499023
621.366211	15788.997070
620.155273	15952.547852
618.944336	15779.626953
617.732422	15701.696289
616.520508	15693.936523
615.308594	15632.558594
614.095703	15595.950195
612.882813	15650.058594
611.669922	15563.999023
610.457031	15337.869141
609.243164	15478.514648
608.029297	15538.774414
606.815430	15553.708008
605.600586	15319.550781
604.385742	15458.008789
603.170898	15472.946289
601.955078	15526.960938
600.740234	15471.949219
599.524414	15474.534180
598.307617	15419.557617
597.091797	15713.987305
595.875000	15708.291992
594.658203	15554.693359
593.440430	15622.970703
592.222656	15703.535156
591.004883	15453.559570
589.787109	15519.756836
588.568359	15423.827148
587.349609	15430.508789
586.130859	15273.114258
584.912109	15253.170898
583.692383	15194.286133
582.472656	15151.823242
581.251953	15176.997070
580.032227	15288.196289
578.811523	15364.525391
577.589844	15328.202148
576.369141	15506.840820
575.147461	15675.162109
573.925781	15892.511719
572.703125	16138.400391
571.481445	16328.952148
570.258789	16826.125000
569.035156	16883.550781
567.812500	17323.136719
566.588867	17104.570313
565.365234	17707.326172
564.140625	17668.498047
562.916992	18085.029297
561.692383	18001.218750
560.466797	17962.345703
559.242188	17652.109375
558.016602	17533.773438
556.791016	17160.550781
555.564453	17050.539063
554.337891	16759.142578
553.111328	16455.652344
551.884766	15917.975586
550.657227	15732.974609
549.429688	15425.857422
548.202148	15460.964844
546.974609	15591.736328
545.746094	15345.919922
544.517578	15309.801758
543.288086	15180.121094
542.058594	15331.169922
540.829102	15110.040039
539.599609	15065.874023
538.370117	15066.442383
537.139648	14906.483398
535.909180	14909.118164
534.677734	15116.882813
533.446289	15084.946289
532.214844	14795.203125
530.983398	14946.018555
529.750977	14849.208984
528.519531	14857.933594
527.286133	14824.060547
526.053711	14851.035156
524.820313	15013.821289
523.586914	14862.380859
522.353516	14994.693359
521.119141	14918.281250
519.884766	14866.208984
518.650391	14828.333984
517.415039	14816.792969
516.179688	14736.442383
514.944336	14718.856445
513.708984	14703.299805
