#Wave		#Intensity
2109.224609	5800.463867
2107.712891	5631.759277
2106.201172	5782.673340
2104.687500	5845.899902
2103.175781	5902.487793
2101.662109	5816.932617
2100.150391	5726.458496
2098.636719	5664.104004
2097.123047	5651.320801
2095.607422	5651.751953
2094.093750	5705.006836
2092.578125	5674.068848
2091.064453	5803.198242
2089.548828	5755.755371
2088.033203	5673.697266
2086.517578	5698.857910
2085.000000	5753.683105
2083.484375	5640.361328
2081.966797	5630.907227
2080.449219	5596.743164
2078.931641	5732.255859
2077.414063	5650.326660
2075.894531	5538.795898
2074.376953	5639.665039
2072.857422	5700.991699
2071.337891	5778.746582
2069.818359	5673.864258
2068.298828	5703.894531
2066.777344	5714.179199
2065.257813	5686.647461
2063.736328	5659.127441
2062.214844	5634.905762
2060.693359	5645.196777
2059.171875	5691.620605
2057.648438	5596.791016
2056.126953	5569.319824
2054.603516	5701.090332
2053.080078	5622.731445
2051.556641	5636.293457
2050.033203	5733.514648
2048.507813	5619.116211
2046.984375	5703.180664
2045.458984	5641.299805
2043.933594	5590.918945
2042.408203	5566.779297
2040.882813	5596.716797
2039.355469	5644.659668
2037.830078	5612.335449
2036.302734	5562.014648
2034.775391	5716.337891
2033.248047	5641.466797
2031.718750	5699.166504
2030.191406	5581.796875
2028.662109	5585.510254
2027.134766	5603.938965
2025.605469	5663.232422
2024.076172	5670.194824
2022.544922	5615.055664
2021.015625	5546.869141
2019.484375	5617.557617
2017.955078	5518.370117
2016.423828	5572.707031
2014.892578	5581.312500
2013.359375	5629.083984
2011.828125	5601.774902
2010.294922	5631.576660
2008.761719	5512.939941
2007.230469	5503.610840
2005.695313	5657.320801
2004.162109	5561.574707
2002.628906	5558.759277
2001.093750	5544.540527
1999.558594	5654.128418
1998.023438	5584.521973
1996.488281	5580.075684
1994.953125	5546.329102
1993.417969	5546.775391
1991.880859	5579.766113
1990.343750	5557.429199
1988.806641	5543.233887
1987.269531	5613.606445
1985.732422	5581.520996
1984.193359	5502.309570
1982.656250	5506.014648
1981.117188	5418.728516
1979.578125	5463.061523
1978.039063	5564.218750
1976.500000	5637.729492
1974.958984	5516.397461
1973.417969	5526.586426
1971.878906	5510.807617
1970.337891	5519.370605
1968.796875	5493.867188
1967.253906	5523.512695
1965.712891	5441.271484
1964.169922	5534.134766
1962.626953	5447.063965
1961.083984	5531.784668
1959.541016	5469.050781
1957.998047	5411.202637
1956.455078	5555.790527
1954.910156	5515.756836
1953.365234	5493.544434
1951.820313	5561.963867
1950.275391	5567.255371
1948.730469	5577.397461
1947.183594	5477.563477
1945.638672	5511.973145
1944.091797	5459.075195
1942.544922	5422.360840
1940.998047	5577.949707
1939.449219	5428.139648
1937.902344	5465.753418
1936.353516	5380.623535
1934.804688	5519.943848
1933.255859	5446.137207
1931.707031	5364.292969
1930.158203	5421.241211
1928.607422	5315.239746
1927.058594	5396.365723
1925.507813	5438.758789
1923.957031	5455.339844
1922.406250	5431.619629
1920.853516	5395.018555
1919.302734	5487.318359
1917.750000	5407.230957
1916.197266	5462.449707
1914.644531	5438.752930
1913.091797	5366.774414
1911.539063	5413.919434
1909.984375	5457.826660
1908.431641	5429.323730
1906.876953	5381.532715
1905.322266	5417.378418
1903.767578	5345.495117
1902.210938	5410.264648
1900.656250	5303.058594
1899.099609	5456.175293
1897.542969	5410.044434
1895.986328	5351.085449
1894.429688	5446.291504
1892.873047	5291.032227
1891.314453	5413.494141
1889.755859	5386.675781
1888.199219	5300.510742
1886.640625	5402.041504
1885.080078	5428.160645
1883.521484	5430.219727
1881.960938	5433.880371
1880.402344	5357.410645
1878.841797	5313.018066
1877.281250	5475.288574
1875.720703	5459.717285
1874.158203	5484.183105
1872.597656	5316.532227
1871.035156	5318.609863
1869.472656	5347.890137
1867.910156	5394.755859
1866.347656	5408.011719
1864.783203	5179.784180
1863.220703	5332.179688
1861.656250	5345.439941
1860.091797	5283.579590
1858.527344	5317.616211
1856.962891	5402.757813
1855.396484	5396.825195
1853.832031	5186.500488
1852.265625	5257.247070
1850.699219	5289.655762
1849.132813	5253.430664
1847.566406	5461.329102
1845.998047	5346.920410
1844.431641	5286.783203
1842.863281	5327.123047
1841.294922	5343.533203
1839.726563	5414.125488
1838.156250	5250.449219
1836.587891	5340.148438
1835.017578	5391.582520
1833.449219	5212.089844
1831.878906	5381.345215
1830.306641	5268.784668
1828.736328	5369.523926
1827.166016	5344.523438
1825.593750	5362.484375
1824.021484	5339.085938
1822.449219	5328.417969
1820.876953	5196.932129
1819.304688	5294.379395
1817.730469	5263.068359
1816.158203	5312.797363
1814.583984	5267.199707
1813.009766	5328.022949
1811.435547	5257.036621
1809.859375	5290.849609
1808.285156	5281.796875
1806.708984	5163.262695
1805.132813	5277.980469
1803.556641	5287.968262
1801.980469	5277.336914
1800.404297	5231.831543
1798.826172	5333.755859
1797.248047	5413.451172
1795.671875	5348.931641
1794.093750	5254.342285
1792.513672	5386.266113
1790.935547	5446.880859
1789.355469	5364.994141
1787.777344	5311.631348
1786.197266	5212.400879
1784.617188	5241.359375
1783.035156	5303.520996
1781.455078	5341.935547
1779.873047	5426.184082
1778.292969	5366.551270
1776.710938	5355.935547
1775.128906	5468.567871
1773.544922	5467.412598
1771.962891	5365.176758
1770.378906	5381.412598
1768.794922	5377.118164
1767.212891	5345.993164
1765.626953	5370.112305
1764.042969	5436.819336
1762.458984	5348.914551
1760.873047	5425.059570
1759.287109	5427.066406
1757.701172	5460.600098
1756.115234	5407.436523
1754.529297	5437.807617
1752.941406	5498.098633
1751.355469	5377.232422
1749.767578	5442.233887
1748.179688	5502.484375
1746.591797	5513.913574
1745.001953	5487.568359
1743.414063	5469.101074
1741.824219	5401.875977
1740.234375	5635.069824
1738.644531	5648.029785
1737.054688	5522.642578
1735.462891	5626.780273
1733.873047	5556.449219
1732.281250	5555.273926
1730.689453	5671.903320
1729.097656	5689.548340
1727.505859	5645.953125
1725.912109	5748.360840
1724.320313	5682.799316
1722.726563	5573.331055
1721.132813	5716.475586
1719.539063	5701.149902
1717.945313	5770.506836
1716.349609	5803.775879
1714.755859	5758.659668
1713.160156	5743.336914
1711.564453	5901.929199
1709.968750	5927.308594
1708.371094	5871.240723
1706.775391	5790.144531
1705.177734	5873.451172
1703.580078	5820.559082
1701.982422	5878.787109
1700.384766	5946.376465
1698.787109	5906.014648
1697.187500	5921.964844
1695.587891	6034.840820
1693.990234	6110.153809
1692.390625	6076.041016
1690.789063	6166.937012
1689.189453	6254.669922
1687.587891	6268.961914
1685.988281	6273.878906
1684.386719	6242.887695
1682.785156	6300.874023
1681.181641	6321.384277
1679.580078	6441.733398
1677.976563	6445.046387
1676.373047	6587.149414
1674.769531	6565.483887
1673.166016	6684.118164
1671.562500	6780.883301
1669.957031	6827.747070
1668.353516	6955.595703
1666.748047	7000.844238
1665.142578	7109.915527
1663.537109	7234.507813
1661.929688	7211.181641
1660.324219	7405.725586
1658.716797	7466.386230
1657.109375	7690.346680
1655.501953	7800.685059
1653.894531	7920.304688
1652.285156	8105.162598
1650.677734	8199.798828
1649.068359	8235.348633
1647.458984	8364.093750
1645.849609	8430.656250
1644.240234	8624.523438
1642.628906	8701.869141
1641.019531	8804.015625
1639.408203	9117.170898
1637.796875	9211.426758
1636.185547	9214.122070
1634.572266	9244.730469
1632.960938	9501.704102
1631.347656	9705.860352
1629.734375	9671.248047
1628.121094	9926.415039
1626.507813	10055.986328
1624.894531	10108.057617
1623.279297	10118.293945
1621.664063	10481.522461
1620.048828	10644.916016
1618.433594	10681.338867
1616.818359	11070.515625
1615.203125	11185.722656
1613.585938	11106.010742
1611.968750	11281.463867
1610.351563	11323.891602
1608.734375	11417.305664
1607.117188	11754.830078
1605.498047	11835.750977
1603.878906	11936.715820
1602.261719	12074.700195
1600.640625	12339.227539
1599.021484	12322.703125
1597.402344	12144.139648
1595.781250	12326.704102
1594.162109	12345.670898
1592.541016	12332.239258
1590.919922	12550.109375
1589.296875	12222.143555
1587.675781	12341.297852
1586.052734	12162.991211
1584.429688	12235.885742
1582.806641	12248.674805
1581.183594	12309.198242
1579.560547	12164.918945
1577.935547	12448.636719
1576.312500	12410.579102
1574.687500	12477.166992
1573.062500	12482.191406
1571.435547	12514.897461
1569.810547	12399.968750
1568.183594	12326.598633
1566.558594	12340.869141
1564.931641	12230.659180
1563.304688	12263.378906
1561.675781	12065.675781
1560.048828	11986.307617
1558.419922	12009.842773
1556.791016	11787.757813
1555.162109	11794.441406
1553.533203	11902.392578
1551.904297	11835.412109
1550.273438	11737.783203
1548.642578	11884.010742
1547.011719	11830.871094
1545.380859	11678.125000
1543.750000	11713.931641
1542.119141	11578.126953
1540.486328	11466.887695
1538.853516	11435.331055
1537.220703	11458.906250
1535.587891	11490.125000
1533.955078	11473.885742
1532.320313	11307.698242
1530.685547	11634.179688
1529.052734	11448.144531
1527.416016	11555.784180
1525.781250	11518.139648
1524.146484	11483.567383
1522.509766	11438.311523
1520.873047	11298.348633
1519.236328	11207.324219
1517.599609	11151.463867
1515.962891	11162.808594
1514.324219	11216.888672
1512.687500	11135.114258
1511.048828	11299.039063
1509.410156	10973.193359
1507.771484	10873.218750
1506.130859	10596.400391
1504.492188	10345.617188
1502.851563	10093.416992
1501.210938	9960.188477
1499.570313	9787.403320
1497.927734	9628.401367
1496.287109	9495.356445
1494.644531	9319.735352
1493.001953	9296.415039
1491.359375	9171.134766
1489.716797	8982.000977
1488.074219	9028.744141
1486.429688	8929.457031
1484.785156	9179.952148
1483.140625	8907.360352
1481.496094	8873.518555
1479.851563	8885.280273
1478.207031	9077.833008
1476.560547	8990.809570
1474.914063	9136.176758
1473.267578	9149.386719
1471.621094	9300.726563
1469.972656	9046.785156
1468.326172	9031.173828
1466.677734	9097.486328
1465.029297	9188.037109
1463.380859	9354.364258
1461.732422	9299.280273
1460.082031	9307.877930
1458.431641	9239.188477
1456.783203	9375.056641
1455.132813	9492.689453
1453.480469	9396.742188
1451.830078	9340.201172
1450.177734	9480.468750
1448.527344	9183.301758
1446.875000	9099.606445
1445.220703	8963.000000
1443.568359	9013.992188
1441.916016	9104.274414
1440.261719	9061.482422
1438.607422	8870.588867
1436.953125	8882.263672
1435.298828	8764.006836
1433.642578	8707.728516
1431.988281	8633.352539
1430.332031	8604.301758
1428.675781	8522.431641
1427.019531	8336.465820
1425.361328	8244.126953
1423.705078	8105.063477
1422.046875	8172.676758
1420.388672	8116.618652
1418.730469	8003.298828
1417.072266	8061.845215
1415.412109	8085.708008
1413.753906	7989.038086
1412.093750	8092.732910
1410.433594	7937.374023
1408.773438	8004.900391
1407.111328	8212.379883
1405.451172	8231.660156
1403.789063	8223.848633
1402.126953	8252.140625
1400.464844	8319.521484
1398.802734	8412.432617
1397.138672	8466.217773
1395.474609	8353.157227
1393.812500	8406.930664
1392.146484	8308.952148
1390.482422	8346.189453
1388.818359	8231.748047
1387.152344	8118.856934
1385.486328	8214.645508
1383.820313	8091.301758
1382.154297	8254.565430
1380.488281	8411.757813
1378.820313	8396.422852
1377.154297	8546.016602
1375.486328	8589.117188
1373.818359	8563.260742
1372.148438	8633.306641
1370.480469	8558.016602
1368.810547	8294.053711
1367.140625	8395.553711
1365.470703	8389.225586
1363.800781	8418.818359
1362.130859	8198.507813
1360.458984	8202.695313
1358.787109	8170.984375
1357.115234	8184.147461
1355.443359	8127.036621
1353.771484	8180.559082
1352.097656	8405.912109
1350.423828	8501.181641
1348.751953	8735.325195
1347.076172	8826.000000
1345.402344	8971.876953
1343.728516	9292.339844
1342.052734	9544.010742
1340.376953	9616.518555
1338.701172	9850.104492
1337.025391	10029.894531
1335.347656	10215.569336
1333.671875	10353.457031
1331.994141	10482.339844
1330.316406	10298.239258
1328.638672	10355.566406
1326.960938	10456.060547
1325.281250	10443.335938
1323.601563	10241.536133
1321.921875	10203.557617
1320.242188	9850.105469
1318.562500	9925.302734
1316.880859	9708.915039
1315.201172	9485.187500
1313.519531	9303.188477
1311.837891	9088.564453
1310.154297	9053.864258
1308.472656	9069.697266
1306.789063	8929.541992
1305.105469	8626.074219
1303.421875	8613.776367
1301.738281	8392.161133
1300.054688	8314.612305
1298.369141	8284.582031
1296.683594	8048.348145
1294.998047	8194.893555
1293.312500	7969.162109
1291.626953	7905.131836
1289.939453	7820.377441
1288.253906	7791.973145
1286.566406	7717.650879
1284.878906	7678.911133
1283.189453	7819.381836
1281.501953	7734.736328
1279.812500	7737.464355
1278.123047	7700.231445
1276.433594	7569.797363
1274.744141	7686.464355
1273.052734	7523.552246
1271.363281	7544.063965
1269.671875	7302.902832
1267.980469	7274.679199
1266.289063	7307.051758
1264.595703	7058.714844
1262.904297	7128.044434
1261.210938	7241.643066
1259.517578	7149.977539
1257.824219	6983.074219
1256.128906	7242.721191
1254.435547	7142.262207
1252.740234	7230.651855
1251.044922	7115.491699
1249.349609	7134.550781
1247.652344	7088.742188
1245.957031	7131.376953
1244.259766	7187.252441
1242.562500	7207.748535
1240.865234	7237.071777
1239.167969	7067.604492
1237.468750	6787.805176
1235.769531	6951.130371
1234.072266	6870.123535
1232.371094	6881.832520
1230.671875	6909.713379
1228.972656	6875.822754
1227.271484	6634.659180
1225.570313	6771.339355
1223.869141	6605.248047
1222.167969	6637.563965
1220.464844	6637.550781
1218.763672	6619.915039
1217.060547	6520.070313
1215.357422	6459.900391
1213.654297	6332.251953
1211.949219	6392.457520
1210.246094	6298.617188
1208.541016	6424.795410
1206.835938	6452.681641
1205.130859	6332.503418
1203.423828	6357.465820
1201.718750	6293.039063
1200.011719	6364.874023
1198.304688	6342.944824
1196.597656	6400.092285
1194.888672	6416.225098
1193.181641	6408.933105
1191.472656	6518.702148
1189.763672	6387.041992
1188.054688	6612.308594
1186.343750	6550.873047
1184.634766	6631.270996
1182.923828	6561.087891
1181.212891	6748.117676
1179.501953	6727.610352
1177.791016	6672.057129
1176.078125	6699.763672
1174.365234	6644.240234
1172.652344	6733.243164
1170.939453	6629.579102
1169.226563	6562.434570
1167.511719	6492.402832
1165.798828	6489.483887
1164.083984	6317.439453
1162.369141	6378.696777
1160.652344	6318.967773
1158.937500	6292.775879
1157.220703	6212.698242
1155.503906	6157.414063
1153.787109	6106.521973
1152.070313	5997.424805
1150.351563	6009.170898
1148.632813	5984.535645
1146.916016	5930.816406
1145.195313	5699.687500
1143.476563	5720.211914
1141.757813	5684.031738
1140.037109	5554.850098
1138.316406	5603.000000
1136.595703	5569.774414
1134.875000	5540.919922
1133.152344	5417.693848
1131.429688	5343.881836
1129.708984	5267.199707
1127.984375	5218.122559
1126.261719	5122.642578
1124.539063	5233.166992
1122.814453	5115.974609
1121.089844	5177.156738
1119.365234	5119.456055
1117.640625	5018.307617
1115.914063	5011.375488
1114.187500	4962.440918
1112.462891	4946.834961
1110.734375	4954.400391
1109.007813	5014.071289
1107.281250	4939.129395
1105.552734	4815.029297
1103.824219	4811.043457
1102.095703	4811.397949
1100.367188	4885.489746
1098.636719	4781.749023
1096.908203	4828.354004
1095.177734	4763.683594
1093.447266	4748.156250
1091.714844	4609.878418
1089.984375	4624.712891
1088.251953	4606.339355
1086.519531	4615.394043
1084.787109	4534.985352
1083.054688	4502.217773
1081.320313	4615.128906
1079.585938	4588.124023
1077.851563	4617.352539
1076.117188	4594.682617
1074.382813	4530.235840
1072.648438	4702.073730
1070.912109	4600.184082
1069.175781	4522.819336
1067.439453	4603.845215
1065.701172	4579.767090
1063.964844	4536.993164
1062.226563	4659.679199
1060.488281	4565.126953
1058.750000	4384.339844
1057.011719	4568.793457
1055.271484	4422.582520
1053.531250	4404.328613
1051.791016	4437.801758
1050.050781	4425.296875
1048.310547	4384.078125
1046.568359	4489.314453
1044.826172	4469.628418
1043.083984	4366.720703
1041.341797	4431.716797
1039.599609	4384.803711
1037.855469	4446.896973
1036.113281	4434.409668
1034.369141	4430.527344
1032.623047	4475.369629
1030.878906	4372.622070
1029.132813	4394.538086
1027.386719	4475.157715
1025.640625	4497.039551
1023.894531	4461.654785
1022.148438	4401.958008
1020.400391	4386.640625
1018.652344	4561.574707
1016.904297	4499.034180
1015.156250	4535.174805
1013.406250	4536.992676
1011.658203	4494.506836
1009.908203	4572.056641
1008.158203	4413.877930
1006.408203	4522.828125
1004.656250	4554.627441
1002.904297	4539.305664
1001.152344	4592.492676
999.400391	4701.299316
997.648438	4527.615234
995.896484	4555.096191
994.142578	4451.389160
992.388672	4381.940918
990.634766	4476.417480
988.878906	4368.524414
987.125000	4361.819824
985.369141	4404.964355
983.613281	4244.478516
981.857422	4364.498535
980.099609	4320.796875
978.343750	4272.846191
976.585938	4301.733398
974.828125	4307.852051
973.070313	4291.217285
971.310547	4276.011230
969.552734	4282.129883
967.792969	4322.347168
966.033203	4309.984375
964.273438	4409.825195
962.511719	4442.883789
960.750000	4542.646973
958.990234	4684.940918
957.226563	4722.168457
955.464844	4712.564941
953.703125	4687.364258
951.939453	4555.829590
950.175781	4581.709961
948.412109	4474.353516
946.648438	4369.879883
944.882813	4290.953613
943.117188	4169.574707
941.351563	4230.911621
939.585938	4163.395996
937.820313	4216.212891
936.052734	4152.976563
934.285156	4268.015137
932.517578	4136.907227
930.750000	4162.813965
928.982422	4115.196777
927.212891	4160.882324
925.443359	4121.765137
923.673828	4079.840332
921.904297	4035.109863
920.132813	4072.297607
918.361328	4137.701660
916.591797	4036.532715
914.818359	4042.649902
913.046875	4038.888916
911.275391	4029.487549
909.501953	4139.945801
907.728516	3986.731445
905.955078	4054.864990
904.179688	4068.012451
902.406250	4069.883057
900.630859	3992.881104
898.855469	4121.496094
897.080078	4081.119141
895.302734	4125.206543
893.525391	4122.838379
891.750000	4140.166016
889.970703	4187.020996
888.193359	4024.340088
886.416016	4044.489014
884.636719	3917.053467
882.857422	3955.483887
881.078125	3864.652832
879.296875	3910.099365
877.517578	3935.865967
875.736328	3961.620117
873.955078	3963.502441
872.173828	3898.030762
870.390625	3897.120361
868.609375	3934.078125
866.826172	4067.770020
865.042969	3957.473633
863.259766	3883.668701
861.474609	3966.833496
859.689453	3951.897217
857.904297	3791.309570
856.119141	3898.240479
854.333984	3823.133789
852.546875	3860.027588
850.761719	3859.124268
848.974609	3915.576660
847.185547	3886.688232
845.398438	3880.185059
843.609375	3960.356689
841.822266	3842.029785
840.031250	3941.733887
838.242188	3905.886475
836.453125	3911.954102
834.662109	3804.918213
832.871094	3778.898682
831.080078	3791.968994
829.289063	3765.963867
827.496094	3791.585205
825.703125	3799.063721
823.910156	3855.340088
822.117188	3836.312988
820.324219	3740.642090
818.529297	3834.511963
816.734375	3847.541748
814.939453	3856.386963
813.144531	3812.317383
811.347656	3844.830811
809.550781	3798.000488
807.755859	3797.107910
805.957031	3751.701172
804.160156	3852.342773
802.361328	3749.937012
800.564453	3671.210205
798.765625	3645.331055
796.964844	3686.156250
795.166016	3650.561279
793.365234	3648.313232
791.564453	3625.239258
789.763672	3682.686768
787.962891	3748.433838
786.160156	3755.875732
784.359375	3613.502686
782.556641	3666.737061
780.751953	3696.375732
778.949219	3570.750244
777.144531	3572.680176
775.339844	3659.124756
773.535156	3453.255371
771.730469	3626.932617
769.925781	3624.692627
768.119141	3694.431641
766.312500	3656.195557
764.505859	3700.989746
762.697266	3648.937012
760.890625	3613.503418
759.082031	3573.938232
757.273438	3644.970947
755.464844	3721.497314
753.654297	3672.262695
751.845703	3761.177246
750.035156	3798.954834
748.224609	3867.087646
746.412109	3918.624268
744.601563	4099.852539
742.789063	4267.198242
740.976563	4577.912109
739.164063	5375.257813
737.349609	6289.411621
735.537109	7721.382813
733.722656	8817.822266
731.908203	9426.044922
730.091797	9107.024414
728.277344	7922.006836
726.460938	6899.999512
724.644531	5643.116699
722.828125	4941.374023
721.009766	4506.852539
719.193359	4358.618164
717.375000	4138.949707
715.556641	4055.484863
713.736328	4050.400391
711.917969	4016.462402
710.097656	3956.438477
708.277344	3912.924072
706.457031	3914.742432
704.636719	3808.109619
702.814453	3783.874756
700.992188	3774.744385
699.169922	3727.207275
697.347656	3646.776855
695.523438	3637.684570
693.699219	3730.038086
691.875000	3797.677979
690.050781	3729.637695
688.226563	3743.820557
686.400391	3768.952637
684.574219	3770.796143
682.748047	3732.940674
680.921875	3784.059082
679.095703	3714.748535
677.267578	3745.327881
675.439453	3736.232422
673.611328	3770.893066
671.781250	3681.146240
669.953125	3680.271240
668.123047	3705.355713
666.292969	3738.623535
664.460938	3726.809326
662.630859	3859.723145
660.798828	3744.146484
658.966797	3718.692139
657.134766	3822.861084
655.302734	3787.851074
653.468750	3855.134033
651.634766	3899.207275
649.800781	3886.011963
647.966797	3905.527588
646.130859	3923.671143
644.294922	3880.512939
642.458984	3797.884766
640.623047	3773.836182
638.787109	3949.878906
636.949219	3916.279785
635.111328	3875.894043
633.273438	3911.693604
631.435547	3806.057617
629.595703	3848.653564
627.757813	3843.658936
625.917969	3884.866211
624.076172	3945.072510
622.236328	3938.699219
620.394531	3879.372803
618.552734	3847.224609
616.710938	3821.877441
614.869141	3746.337891
613.025391	3645.059326
611.183594	3699.795166
609.339844	3620.270020
607.494141	3620.761963
605.650391	3613.121582
603.804688	3583.805664
601.958984	3513.865234
600.113281	3607.826904
598.267578	3594.780029
596.419922	3584.446289
594.572266	3544.344238
592.724609	3580.029053
590.876953	3487.192383
589.027344	3536.396484
587.179688	3492.287109
585.330078	3427.922852
583.480469	3316.290771
581.628906	3424.934326
579.779297	3424.116211
577.927734	3421.947754
576.076172	3365.776367
574.222656	3481.052246
572.371094	3427.592041
570.517578	3472.643066
568.664063	3378.745850
566.810547	3537.058594
564.955078	3517.338867
563.101563	3559.628662
561.246094	3480.622070
559.390625	3487.873047
557.533203	3429.123779
555.677734	3459.274170
553.820313	3419.406494
551.962891	3426.664063
550.105469	3478.322266
548.246094	3470.763916
546.386719	3324.680664
544.527344	3372.291504
542.667969	3437.354980
540.808594	3439.220459
538.947266	3476.019775
537.085938	3480.561279
535.224609	3459.583496
533.363281	3482.923828
531.500000	3355.908203
529.638672	3387.313965
527.775391	3328.809326
525.910156	3483.614746
524.046875	3667.849854
522.181641	4093.332764
520.316406	4652.655273
518.451172	4324.553223
516.585938	3858.608887
514.718750	3544.248291
512.851563	3468.406982
510.984375	3427.411377
509.117188	3363.680664
507.250000	3345.478760
505.380859	3303.203369
503.511719	3282.349121
501.642578	3277.551270
499.771484	3220.616211
497.902344	3281.327881
496.031250	3308.603516
494.160156	3143.489258
492.287109	3189.483154
490.416016	3166.018799
488.542969	3218.660156
486.669922	3189.860840
484.796875	3158.406494
482.921875	3185.664551
481.046875	3240.917236
479.171875	3220.139648
477.296875	3227.366699
475.421875	3225.260498
473.544922	3167.193115
471.667969	3251.689453
469.791016	3171.002686
467.914063	3114.320801
466.035156	3128.217285
464.156250	3168.723633
462.277344	3129.379150
460.398438	3055.468262
458.519531	3110.590820
456.638672	3148.402832
454.757813	3129.038818
452.876953	3051.211182
450.994141	3116.910400
449.113281	3080.299561
447.230469	3103.464600
445.347656	3074.840332
443.462891	3080.739990
441.580078	3211.375977
439.695313	3093.856934
437.810547	3163.413574
435.925781	3099.004395
434.039063	3082.352783
432.152344	3076.312256
430.267578	3009.319580
428.378906	3013.897461
426.492188	3043.637939
424.603516	3091.902344
422.714844	3067.332031
420.826172	2976.597656
418.937500	3052.629883
417.046875	3010.888916
415.158203	3010.167236
413.265625	3027.957275
411.375000	3077.465332
409.484375	3148.094971
407.591797	3056.170898
405.699219	3120.166748
403.806641	3042.820068
401.912109	3030.207764
400.019531	3009.681152
