#Wave		#Intensity
1585.210938	6431.437988
1584.209961	6324.039551
1583.208984	6385.157227
1582.208008	6396.317383
1581.206055	6305.132813
1580.204102	6316.304688
1579.202148	6295.035645
1578.200195	6241.346191
1577.198242	6215.112793
1576.195313	6358.449219
1575.192383	6446.879883
1574.189453	6345.845215
1573.186523	6411.813965
1572.182617	6398.028809
1571.178711	6359.339844
1570.174805	6372.964844
1569.170898	6262.089844
1568.166992	6295.644043
1567.162109	6232.118652
1566.158203	6248.246582
1565.153320	6142.463379
1564.147461	6367.537598
1563.142578	6219.497559
1562.136719	6198.319336
1561.130859	6179.635254
1560.125000	6265.339844
1559.119141	6251.618652
1558.113281	6143.502441
1557.106445	6330.992676
1556.099609	6334.648438
1555.092773	6263.821289
1554.084961	6312.167969
1553.078125	6295.971191
1552.070313	6282.261719
1551.062500	6288.402832
1550.054688	6111.012695
1549.045898	6290.758301
1548.038086	6177.896973
1547.029297	6315.418457
1546.020508	6175.338867
1545.011719	6156.717773
1544.001953	6266.909668
1542.992188	6263.135742
1541.982422	6197.462402
1540.972656	6198.654785
1539.962891	6261.721191
1538.952148	6156.497070
1537.942383	6212.123535
1536.931641	6144.054199
1535.919922	6263.956055
1534.909180	6116.786133
1533.897461	6261.362305
1532.886719	6225.466309
1531.874023	6246.415527
1530.862305	6297.000488
1529.850586	6179.612793
1528.837891	6111.660645
1527.825195	6154.834473
1526.812500	6311.533203
1525.799805	6169.560547
1524.786133	6249.704590
1523.772461	6312.547363
1522.758789	6256.981445
1521.745117	6243.356934
1520.731445	6205.085449
1519.716797	6324.573730
1518.702148	6318.335449
1517.687500	6275.143555
1516.672852	6372.373047
1515.657227	6124.781738
1514.642578	6283.556641
1513.626953	6267.485352
1512.610352	6256.342285
1511.594727	6282.114258
1510.579102	6192.247070
1509.562500	6200.803223
1508.545898	6192.141113
1507.529297	6181.023926
1506.511719	6078.960449
1505.494141	6276.768555
1504.477539	6233.697754
1503.458984	6212.753418
1502.441406	6096.029785
1501.423828	6197.901855
1500.405273	6189.252441
1499.386719	6183.061035
1498.368164	6174.417969
1497.348633	6229.570313
1496.330078	6157.141113
1495.310547	6239.251953
1494.291016	6100.645508
1493.271484	6261.181641
1492.250977	6220.667969
1491.231445	6221.829102
1490.210938	6210.739746
1489.190430	6255.993164
1488.168945	6102.859375
1487.148438	6295.023926
1486.126953	6283.927246
1485.105469	6248.360352
1484.083984	6234.830566
1483.061523	6187.055664
1482.040039	6273.826660
1481.017578	6199.163086
1479.995117	6263.890625
1478.971680	6274.813965
1477.949219	6356.605957
1476.925781	6382.165039
1475.902344	6383.284668
1474.878906	6345.325195
1473.855469	6378.195801
1472.831055	6479.410645
1471.806641	6285.237793
1470.782227	6386.429688
1469.757813	6370.465820
1468.733398	6444.764160
1467.708008	6419.038574
1466.682617	6512.802246
1465.657227	6433.440430
1464.631836	6463.790527
1463.605469	6667.142578
1462.579102	6653.577637
1461.552734	6535.277832
1460.526367	6711.698730
1459.500000	6744.393066
1458.472656	6674.833008
1457.445313	6661.278320
1456.417969	6606.363770
1455.390625	6677.975586
1454.362305	6557.407715
1453.334961	6602.250000
1452.306641	6741.892090
1451.277344	6582.493164
1450.249023	6534.951172
1449.219727	6621.064941
1448.191406	6527.378906
1447.162109	6448.303223
1446.131836	6451.820313
1445.102539	6557.300293
1444.072266	6502.539063
1443.041992	6610.390625
1442.011719	6507.116211
1440.981445	6476.655273
1439.950195	6417.104492
1438.918945	6590.349609
1437.887695	6513.830078
1436.856445	6376.749023
1435.825195	6440.849609
1434.792969	6359.562012
1433.760742	6435.750000
1432.728516	6528.857422
1431.696289	6365.280762
1430.663086	6216.295898
1429.629883	6345.692871
1428.596680	6230.648438
1427.563477	6260.801758
1426.530273	6155.497070
1425.496094	6115.525879
1424.461914	6186.783203
1423.427734	6214.501953
1422.393555	6179.375977
1421.358398	6265.071289
1420.323242	6056.021973
1419.288086	6175.518555
1418.252930	6362.575195
1417.217773	6153.634766
1416.181641	6248.899414
1415.145508	6180.030762
1414.109375	6258.360840
1413.073242	6119.566406
1412.036133	6176.170898
1411.000000	6131.484375
1409.962891	6159.134766
1408.924805	6230.155273
1407.887695	6211.989746
1406.849609	6111.921875
1405.812500	6240.713379
1404.773438	6268.310547
1403.735352	6250.150879
1402.697266	6345.132324
1401.658203	6240.325684
1400.619141	6313.614258
1399.580078	6483.095703
1398.540039	6464.908203
1397.500977	6312.070313
1396.460938	6219.398438
1395.420898	6268.576660
1394.380859	6353.780762
1393.339844	6201.091797
1392.298828	6291.077637
1391.257813	6241.733398
1390.216797	6341.276855
1389.175781	6287.140625
1388.133789	6103.421875
1387.091797	6286.916016
1386.049805	6218.429199
1385.007813	6238.718262
1383.964844	6306.959961
1382.922852	6447.100586
1381.879883	6388.224121
1380.835938	6425.235352
1379.792969	6416.704590
1378.749023	6492.022949
1377.706055	6416.418945
1376.661133	6436.629883
1375.617188	6404.161621
1374.573242	6491.385742
1373.528320	6525.924805
1372.483398	6567.627441
1371.438477	6551.901855
1370.392578	6447.693848
1369.347656	6381.786621
1368.301758	6444.997559
1367.255859	6369.557129
1366.208984	6310.875000
1365.163086	6371.670898
1364.116211	6365.560547
1363.069336	6316.467285
1362.022461	6279.331543
1360.974609	6373.500488
1359.927734	6281.476563
1358.879883	6265.844727
1357.832031	6266.918457
1356.783203	6244.140625
1355.735352	6285.755371
1354.686523	6265.366211
1353.637695	6426.137695
1352.588867	6448.622070
1351.539063	6285.255371
1350.490234	6436.391602
1349.440430	6511.253906
1348.390625	6478.935059
1347.339844	6584.703125
1346.290039	6873.693359
1345.239258	6748.513672
1344.188477	6882.706543
1343.137695	6983.542480
1342.085938	6867.929199
1341.034180	7032.920410
1339.982422	7105.134766
1338.930664	6987.190430
1337.878906	7083.144531
1336.826172	7036.521484
1335.773438	7127.673340
1334.720703	6988.450195
1333.667969	6925.256348
1332.614258	7047.229492
1331.561523	7121.688965
1330.507813	7001.562500
1329.453125	6962.138184
1328.399414	7000.992676
1327.344727	6959.212891
1326.290039	6846.331543
1325.235352	6816.451172
1324.180664	6815.018555
1323.125000	6680.915039
1322.070313	6726.882813
1321.014648	6590.485352
1319.958008	6615.143066
1318.902344	6533.269531
1317.845703	6444.329590
1316.789063	6476.099609
1315.732422	6403.768066
1314.675781	6322.005371
1313.618164	6403.437012
1312.560547	6373.719727
1311.502930	6296.741211
1310.445313	6439.566895
1309.386719	6407.496582
1308.329102	6389.611816
1307.270508	6331.585938
1306.210938	6157.887695
1305.152344	6328.918457
1304.092773	6388.948730
1303.033203	6328.610352
1301.973633	6195.163086
1300.914063	6285.845215
1299.853516	6201.983887
1298.792969	6195.960449
1297.732422	6213.510742
1296.671875	6169.779785
1295.611328	6161.409668
1294.549805	6084.727539
1293.488281	6187.071777
1292.426758	5980.907715
1291.364258	6054.979492
1290.302734	6027.810547
1289.240234	6127.725098
1288.177734	6138.194336
1287.114258	6101.614746
1286.051758	5919.244141
1284.988281	5995.583496
1283.924805	5954.354492
1282.861328	5941.344727
1281.796875	6041.126953
1280.732422	6159.660156
1279.667969	6019.782715
1278.603516	6065.474609
1277.539063	5979.673340
1276.473633	6062.908691
1275.408203	6096.827148
1274.342773	6079.113281
1273.277344	6035.603027
1272.210938	6067.159180
1271.145508	5936.913574
1270.079102	6081.000000
1269.011719	6119.556641
1267.945313	5977.664551
1266.877930	6027.938965
1265.810547	6066.480469
1264.743164	6062.853516
1263.674805	5902.361816
1262.607422	6029.853516
1261.539063	5801.567871
1260.470703	5884.569824
1259.401367	6037.715332
1258.333008	5952.238281
1257.263672	5855.105469
1256.194336	5952.050781
1255.125000	6053.629395
1254.054688	5970.556152
1252.985352	5931.908203
1251.915039	5893.275391
1250.843750	5896.694824
1249.773438	6061.215820
1248.702148	5964.220703
1247.630859	5906.941406
1246.559570	5975.687012
1245.488281	5911.430176
1244.416016	5919.503418
1243.343750	5908.917480
1242.271484	5884.348145
1241.199219	5876.104004
1240.125977	5928.453125
1239.053711	5866.615234
1237.980469	5774.521973
1236.906250	5947.958984
1235.833008	5983.947754
1234.758789	5943.100098
1233.684570	5918.561035
1232.610352	5826.551758
1231.536133	5888.124023
1230.460938	5761.270996
1229.385742	6046.069336
1228.310547	5849.488281
1227.235352	5859.864258
1226.159180	5937.628906
1225.083008	5859.689941
1224.006836	5925.805664
1222.930664	5852.546875
1221.853516	5746.811035
1220.777344	5928.979980
1219.700195	5899.863770
1218.622070	5722.250000
1217.544922	5973.904785
1216.466797	5879.851074
1215.388672	5918.018555
1214.310547	5881.978027
1213.232422	5952.579590
1212.153320	5789.083984
1211.074219	5868.942383
1209.995117	5844.523438
1208.916016	5859.486328
1207.835938	5904.544434
1206.755859	5905.597168
1205.675781	5767.778320
1204.595703	5889.187988
1203.514648	5783.819824
1202.434570	5791.834961
1201.353516	5779.033203
1200.271484	5719.995605
1199.190430	5829.725586
1198.108398	5883.943359
1197.026367	5716.323242
1195.944336	5726.649414
1194.862305	5780.853027
1193.779297	5689.560547
1192.696289	5746.056641
1191.613281	5726.360352
1190.530273	5798.976074
1189.446289	5790.812012
1188.362305	5681.160156
1187.278320	5700.697266
1186.194336	5694.863281
1185.109375	5652.149902
1184.024414	5754.645508
1182.939453	5760.323242
1181.854492	5740.657715
1180.768555	5661.119141
1179.683594	5689.837891
1178.597656	5538.976563
1177.510742	5701.204590
1176.424805	5665.462891
1175.337891	5724.062988
1174.250977	5679.129883
1173.164063	5631.916016
1172.077148	5662.894043
1170.989258	5581.222168
1169.901367	5648.968262
1168.813477	5519.082031
1167.724609	5706.266113
1166.636719	5581.016113
1165.547852	5543.075684
1164.458984	5482.193848
1163.369141	5641.680176
1162.280273	5729.960449
1161.190430	5597.954590
1160.100586	5734.374023
1159.010742	5689.566895
1157.919922	5594.337891
1156.829102	5494.564941
1155.738281	5497.964355
1154.647461	5652.586426
1153.555664	5646.786133
1152.464844	5462.345215
1151.373047	5660.379883
1150.280273	5546.982910
1149.188477	5552.652832
1148.095703	5592.644043
1147.002930	5682.950195
1145.910156	5603.954102
1144.817383	5637.046875
1143.723633	5562.666504
1142.629883	5609.468262
1141.536133	5612.827148
1140.441406	5549.923340
1139.347656	5651.520508
1138.252930	5595.485840
1137.158203	5623.960449
1136.062500	5606.764160
1134.967773	5635.223145
1133.872070	5748.099121
1132.776367	5639.629395
1131.679688	5711.398438
1130.583984	5710.162598
1129.487305	5843.441895
1128.390625	5830.779785
1127.292969	5879.653809
1126.196289	5764.458496
1125.098633	5662.979980
1124.000977	5711.857422
1122.903320	5687.850098
1121.804688	5786.782227
1120.706055	5765.043945
1119.607422	5650.020020
1118.508789	5539.595703
1117.409180	5572.511719
1116.310547	5689.550781
1115.210938	5581.461426
1114.110352	5582.523438
1113.010742	5683.575195
1111.910156	5523.299316
1110.809570	5551.630371
1109.708984	5575.406250
1108.607422	5699.075195
1107.506836	5618.385254
1106.405273	5553.617188
1105.303711	5575.100586
1104.201172	5607.917480
1103.098633	5509.170898
1101.996094	5532.916504
1100.893555	5561.185547
1099.791016	5559.976074
1098.687500	5404.670898
1097.583984	5593.806641
1096.480469	5619.770508
1095.376953	5645.723145
1094.272461	5470.155273
1093.167969	5564.037109
1092.063477	5515.299316
1090.958008	5498.259277
1089.853516	5578.499023
1088.748047	5563.713379
1087.642578	5573.806641
1086.536133	5604.241211
1085.430664	5499.050293
1084.324219	5524.967773
1083.217773	5555.391602
1082.110352	5490.935547
1081.003906	5510.061523
1079.896484	5590.137207
1078.789063	5532.485840
1077.680664	5504.197266
1076.573242	5509.764160
1075.464844	5648.417969
1074.356445	5509.612793
1073.247070	5567.033203
1072.138672	5477.899902
1071.029297	5469.940918
1069.919922	5581.410156
1068.809570	5411.229492
1067.700195	5592.483398
1066.589844	5674.577148
1065.479492	5565.272461
1064.368164	5557.302246
1063.257813	5560.586914
1062.146484	5509.873047
1061.035156	5654.874512
1059.922852	5529.949219
1058.811523	5638.908203
1057.699219	5610.698242
1056.586914	5562.273926
1055.473633	5504.882813
1054.361328	5645.199707
1053.248047	5403.650391
1052.134766	5525.963379
1051.021484	5612.303223
1049.907227	5566.184082
1048.792969	5475.205078
1047.678711	5606.367188
1046.564453	5522.147461
1045.449219	5516.450684
1044.333984	5582.498535
1043.218750	5505.062500
1042.103516	5483.685059
1040.987305	5419.746582
1039.871094	5434.235840
1038.754883	5430.802246
1037.638672	5478.867188
1036.521484	5515.717773
1035.404297	5489.886719
1034.287109	5490.916992
1033.169922	5561.294434
1032.051758	5530.996094
1030.933594	5650.526367
1029.815430	5483.851074
1028.697266	5507.229980
1027.578125	5468.029297
1026.458984	5542.784668
1025.339844	5592.937012
1024.220703	5526.944824
1023.100586	5599.403320
1021.980469	5412.903320
1020.860352	5550.071777
1019.740234	5595.702148
1018.619141	5556.547363
1017.498047	5405.901855
1016.376953	5522.881836
1015.255859	5503.830078
1014.133789	5339.921875
1013.011719	5340.971680
1011.889648	5546.968750
1010.767578	5514.563477
1009.644531	5511.119141
1008.521484	5500.997070
1007.398438	5548.748535
1006.274414	5496.342285
1005.151367	5403.913086
1004.027344	5505.034668
1002.902344	5561.635742
1001.778320	5415.893066
1000.653320	5692.543457
999.528320	5413.498047
998.403320	5421.187988
997.278320	5386.668945
996.152344	5438.776855
995.026367	5408.708984
993.900391	5589.537598
992.773438	5457.359375
991.646484	5491.652344
990.519531	5514.837891
989.392578	5549.102051
988.265625	5468.047363
987.137695	5409.196289
986.009766	5636.286133
984.881836	5564.127930
983.752930	5534.093750
982.624023	5612.603516
981.495117	5580.356934
980.366211	5599.044434
979.236328	5482.702637
978.106445	5510.254395
976.976563	5546.643066
975.846680	5472.416992
974.715820	5438.029785
973.585938	5421.344727
972.454102	5440.035156
971.323242	5533.856934
970.191406	5375.751953
969.060547	5595.459473
967.927734	5439.618164
966.795898	5539.979004
965.663086	5565.237793
964.530273	5592.691895
963.397461	5569.382324
962.264648	5592.409668
961.130859	5584.548828
959.997070	5521.562988
958.863281	5586.472168
957.729492	5627.106445
956.594727	5583.984863
955.459961	5589.350586
954.325195	5528.634277
953.189453	5456.933594
952.053711	5510.758789
950.917969	5397.270996
949.782227	5435.680176
948.646484	5496.073730
947.509766	5321.071777
946.373047	5500.220215
945.235352	5340.685547
944.098633	5405.440918
942.960938	5296.545410
941.823242	5321.729980
940.685547	5250.246094
939.546875	5308.373047
938.408203	5313.774902
937.269531	5385.032227
936.129883	5335.543945
934.991211	5490.147461
933.851563	5363.873535
932.711914	5239.848145
931.571289	5297.883301
930.431641	5388.777344
929.291016	5372.229492
928.149414	5329.392090
927.008789	5361.062988
925.867188	5359.863281
924.725586	5273.258301
923.583984	5274.267578
922.441406	5362.832031
921.299805	5357.254395
920.157227	5423.880859
919.013672	5260.795410
917.871094	5323.038574
916.727539	5186.285156
915.583984	5285.677734
914.439453	5332.573730
913.295898	5355.413574
912.151367	5336.736816
911.006836	5215.419434
909.861328	5314.691406
908.716797	5518.704590
907.571289	5395.244141
906.424805	5341.664063
905.279297	5244.476563
904.132813	5258.566895
902.986328	5364.234863
901.839844	5419.712891
900.692383	5394.520020
899.545898	5129.635254
898.398438	5315.844727
897.250000	5375.638184
896.102539	5387.496094
894.954102	5327.501953
893.805664	5324.127441
892.656250	5464.381836
891.507813	5365.247070
890.358398	5411.894531
889.208984	5445.472656
888.058594	5342.059082
886.908203	5469.106934
885.758789	5491.781738
884.607422	5451.436035
883.457031	5232.982422
882.305664	5353.423340
881.154297	5278.394043
880.002930	5400.940430
878.850586	5310.741211
877.698242	5420.205078
876.545898	5284.485352
875.393555	5298.476074
874.240234	5256.083008
873.086914	5285.248047
871.933594	5247.210449
870.780273	5276.363770
869.625977	5368.328125
868.471680	5330.296875
867.317383	5283.620117
866.162109	5330.056152
865.007813	5348.333008
863.852539	5117.746582
862.696289	5263.706543
861.541016	5106.783691
860.384766	5213.754395
859.228516	5325.000488
858.072266	5289.213379
856.915039	5300.983887
855.757813	5183.117188
854.600586	5298.587891
853.442383	5157.019043
852.285156	5257.329102
851.126953	5245.347168
849.968750	5229.053711
848.809570	5316.332520
847.650391	5159.817383
846.491211	5313.926758
845.332031	5362.315430
844.171875	5249.007813
843.012695	5155.147461
841.851563	5250.940430
840.691406	5269.138672
839.530273	5248.562012
838.369141	5275.364746
837.208008	5205.282227
836.046875	5238.538574
834.884766	5091.032227
833.722656	5182.382324
832.560547	5204.866211
831.397461	5158.529785
830.234375	5107.914551
829.071289	5203.475098
827.908203	5206.592285
826.744141	5287.047363
825.580078	5165.568359
824.416016	5213.785156
823.251953	5100.964844
822.086914	5187.808105
820.921875	5169.463379
819.756836	5133.962891
818.590820	5141.376465
817.425781	5165.941406
816.259766	5141.184570
815.092773	5125.012207
813.926758	5181.707520
812.759766	5109.828125
811.592773	5179.352051
810.424805	5126.778320
809.257813	5024.984375
808.089844	5233.614258
806.920898	5097.600586
805.752930	5143.511719
804.583984	5035.387207
803.415039	5119.785156
802.246094	5099.376953
801.076172	5192.271484
799.906250	5150.483887
798.736328	5151.447754
797.566406	5088.326172
796.395508	5119.202637
795.224609	5132.982910
794.053711	5136.083008
792.881836	5092.228516
791.710938	5127.341309
790.538086	5034.443359
789.366211	5086.614746
788.194336	5066.264648
787.021484	5020.342285
785.848633	5161.994141
784.674805	5194.909668
783.500977	5125.554688
782.327148	5058.360352
781.153320	5159.415039
779.979492	5130.562500
778.804688	5142.161621
777.629883	5119.708984
776.454102	5124.922852
775.279297	5110.991211
774.103516	5084.306641
772.927734	5161.805664
771.750977	5069.231934
770.575195	5104.198242
769.398438	5198.634766
768.220703	5182.578613
767.043945	5230.235352
765.866211	5084.673340
764.688477	5206.619141
763.510742	5067.494629
762.332031	5051.484863
761.153320	5162.747559
759.974609	5083.104492
758.794922	4986.536133
757.616211	5051.104004
756.436523	5143.191406
755.255859	5116.590332
754.076172	5168.374023
752.895508	5213.780762
751.714844	5119.429688
750.533203	5171.175781
749.352539	5172.108398
748.170898	5194.197266
746.988281	5262.812012
745.806641	5377.919922
744.624023	5340.744629
743.441406	5402.936035
742.258789	5484.118164
741.075195	5575.827148
739.891602	5899.854492
738.708008	6052.669922
737.523438	6479.897461
736.339844	6723.278320
735.155273	7156.486328
733.969727	7659.123535
732.785156	7826.124512
731.599609	7826.438477
730.414063	7626.443848
729.227539	7184.118652
728.041992	6609.221680
726.855469	6354.858887
725.667969	6007.923828
724.481445	5928.619629
723.293945	5739.860352
722.106445	5433.300781
720.918945	5259.473633
719.730469	5298.244629
718.541992	5153.978516
717.353516	5119.143555
716.164063	5157.918945
714.975586	5020.089844
713.786133	5128.226563
712.595703	5196.389160
711.406250	5016.629883
710.215820	5070.084473
709.025391	5035.321777
707.833984	5040.462402
706.642578	4982.634766
705.451172	5078.013184
704.259766	4971.952148
703.068359	5033.729980
701.875977	5017.894043
700.683594	4916.111328
699.490234	5015.585449
698.297852	4978.808594
697.104492	4960.902832
695.910156	4878.076172
694.716797	4935.585449
693.522461	4917.701172
692.328125	4880.987305
691.132813	5024.250488
689.938477	5023.093750
688.743164	4996.837891
687.547852	5077.240723
686.351563	5069.799316
685.155273	4995.476074
683.958984	4975.518066
682.762695	5003.620605
681.565430	4910.563965
680.368164	4961.638184
679.170898	5016.864258
677.973633	4994.834961
676.775391	4945.687500
675.577148	5000.877930
674.378906	5041.441406
673.179688	5100.753906
671.980469	4972.400879
670.781250	5002.520020
669.581055	4957.604492
668.381836	4981.461914
667.181641	5076.127930
665.980469	4987.493652
664.780273	5057.130371
663.579102	5139.223145
662.377930	5052.715332
661.175781	5030.744141
659.973633	5119.025391
658.771484	4995.148926
657.569336	5110.425293
656.367188	5034.415039
655.164063	5006.236816
653.960938	5202.458496
652.756836	5107.784180
651.552734	5156.445313
650.348633	5144.873535
649.144531	5091.791504
647.939453	5167.399902
646.735352	5218.075684
645.529297	5144.269531
644.324219	5060.127930
643.118164	5079.692383
641.912109	5151.068848
640.706055	5102.213379
639.499023	5206.701172
638.292969	5025.283691
637.084961	5094.534180
635.877930	5060.229004
634.669922	5154.278809
633.461914	5151.017578
632.253906	5164.309570
631.044922	5161.046875
629.836914	5240.508301
628.626953	5115.240234
627.417969	5165.735352
626.208008	5212.072754
624.998047	5258.389160
623.788086	5193.136230
622.577148	5103.130859
621.366211	5035.878418
620.155273	4987.235352
618.944336	5062.440918
617.732422	5077.775879
616.520508	5010.590332
615.308594	4992.932129
614.095703	4898.992188
612.882813	4955.577148
611.669922	5071.901855
610.457031	4965.645508
609.243164	4943.895996
608.029297	4878.907715
606.815430	4964.255859
605.600586	4891.058105
604.385742	4900.215332
603.170898	4794.144043
601.955078	4858.860840
600.740234	4954.396484
599.524414	4856.610352
598.307617	4820.539063
597.091797	4770.097656
595.875000	4859.399902
594.658203	4880.870605
593.440430	4840.718262
592.222656	4870.395508
591.004883	4867.214355
589.787109	4808.621094
588.568359	4811.610352
587.349609	4882.293457
586.130859	4782.718262
584.912109	4847.223633
583.692383	4745.651855
582.472656	4914.658691
581.251953	4798.774902
580.032227	4803.808105
578.811523	4800.646484
577.589844	4803.628418
576.369141	4919.199707
575.147461	4821.867188
573.925781	4882.133789
572.703125	4801.220215
571.481445	4867.598633
570.258789	4831.708984
569.035156	4924.624512
567.812500	4907.131836
566.588867	4936.643555
565.365234	4921.198730
564.140625	4977.243164
562.916992	4790.276367
561.692383	4919.815918
560.466797	4947.247559
559.242188	4797.145508
558.016602	4891.912598
556.791016	4703.141113
555.564453	4885.564453
554.337891	4864.045410
553.111328	4895.526367
551.884766	4871.976074
550.657227	4840.288086
549.429688	4949.145996
548.202148	4874.693848
546.974609	4830.812012
545.746094	4941.630371
544.517578	4887.579102
543.288086	4819.312012
542.058594	4919.885742
540.829102	4914.677246
539.599609	4889.141602
538.370117	4855.487793
537.139648	4953.926758
535.909180	4812.604004
534.677734	4927.254883
533.446289	4767.728516
532.214844	4813.313477
530.983398	4952.238770
529.750977	4886.156738
528.519531	4889.079590
527.286133	4938.649414
526.053711	4884.782227
524.820313	4877.566406
523.586914	5030.469238
522.353516	5027.274902
521.119141	5135.502930
519.884766	5018.864258
518.650391	4952.902344
517.415039	4830.286621
516.179688	4849.404785
514.944336	4743.057129
513.708984	4879.520996
