#Wave		#Intensity
1585.210938	22803.505859
1584.209961	22601.197266
1583.208984	22519.103516
1582.208008	22579.349609
1581.206055	22469.835938
1580.204102	22594.951172
1579.202148	22453.042969
1578.200195	22371.060547
1577.198242	22398.847656
1576.195313	22606.156250
1575.192383	22324.751953
1574.189453	22512.048828
1573.186523	22395.248047
1572.182617	22477.808594
1571.178711	22129.406250
1570.174805	22099.917969
1569.170898	21682.019531
1568.166992	22143.042969
1567.162109	22073.746094
1566.158203	21929.828125
1565.153320	22101.921875
1564.147461	21836.177734
1563.142578	21804.300781
1562.136719	22287.097656
1561.130859	22329.712891
1560.125000	22439.410156
1559.119141	22305.556641
1558.113281	22382.917969
1557.106445	23009.148438
1556.099609	23267.603516
1555.092773	23453.953125
1554.084961	23878.511719
1553.078125	24206.111328
1552.070313	24297.863281
1551.062500	24662.447266
1550.054688	25123.603516
1549.045898	25971.384766
1548.038086	26325.476563
1547.029297	26810.785156
1546.020508	27077.820313
1545.011719	27431.458984
1544.001953	28592.466797
1542.992188	29183.388672
1541.982422	29521.513672
1540.972656	30302.609375
1539.962891	30288.912109
1538.952148	30874.041016
1537.942383	30716.736328
1536.931641	30888.464844
1535.919922	30899.380859
1534.909180	30606.181641
1533.897461	29996.697266
1532.886719	29664.261719
1531.874023	29467.861328
1530.862305	28597.126953
1529.850586	27929.281250
1528.837891	27372.830078
1527.825195	26784.515625
1526.812500	26423.529297
1525.799805	25623.417969
1524.786133	25161.660156
1523.772461	24561.951172
1522.758789	24362.027344
1521.745117	23905.746094
1520.731445	23816.976563
1519.716797	23516.273438
1518.702148	23304.406250
1517.687500	23082.771484
1516.672852	23311.998047
1515.657227	23171.720703
1514.642578	23164.458984
1513.626953	22896.259766
1512.610352	22702.007813
1511.594727	22680.080078
1510.579102	22904.179688
1509.562500	23027.337891
1508.545898	23108.638672
1507.529297	23054.679688
1506.511719	22895.041016
1505.494141	23258.943359
1504.477539	22843.787109
1503.458984	22792.378906
1502.441406	22795.025391
1501.423828	22863.970703
1500.405273	22881.330078
1499.386719	22852.042969
1498.368164	22962.650391
1497.348633	22918.636719
1496.330078	22977.666016
1495.310547	22950.832031
1494.291016	22987.761719
1493.271484	23115.380859
1492.250977	23110.589844
1491.231445	23216.074219
1490.210938	22797.212891
1489.190430	22878.220703
1488.168945	22983.681641
1487.148438	22927.501953
1486.126953	22983.947266
1485.105469	23285.115234
1484.083984	23109.001953
1483.061523	23483.410156
1482.040039	23583.718750
1481.017578	23520.138672
1479.995117	23718.191406
1478.971680	24004.158203
1477.949219	24399.982422
1476.925781	24182.347656
1475.902344	24704.998047
1474.878906	25095.541016
1473.855469	25515.224609
1472.831055	25632.001953
1471.806641	26163.675781
1470.782227	26861.074219
1469.757813	27289.796875
1468.733398	27879.337891
1467.708008	28783.242188
1466.682617	29294.199219
1465.657227	29975.589844
1464.631836	31097.853516
1463.605469	32200.154297
1462.579102	32912.183594
1461.552734	33933.265625
1460.526367	34817.546875
1459.500000	35803.718750
1458.472656	36278.277344
1457.445313	37086.066406
1456.417969	37487.160156
1455.390625	37457.480469
1454.362305	37539.699219
1453.334961	37142.824219
1452.306641	36622.113281
1451.277344	36057.867188
1450.249023	35112.300781
1449.219727	34230.300781
1448.191406	33025.574219
1447.162109	32251.232422
1446.131836	31098.406250
1445.102539	30349.060547
1444.072266	29420.410156
1443.041992	28441.181641
1442.011719	28139.273438
1440.981445	27427.544922
1439.950195	26898.000000
1438.918945	26422.017578
1437.887695	26239.558594
1436.856445	25856.007813
1435.825195	25591.351563
1434.792969	25651.445313
1433.760742	25304.583984
1432.728516	24953.021484
1431.696289	24788.035156
1430.663086	24579.544922
1429.629883	24436.482422
1428.596680	24312.837891
1427.563477	23973.935547
1426.530273	23787.548828
1425.496094	23487.585938
1424.461914	23393.246094
1423.427734	22975.044922
1422.393555	23139.429688
1421.358398	22793.937500
1420.323242	22627.345703
1419.288086	22487.388672
1418.252930	22671.050781
1417.217773	22618.048828
1416.181641	22417.835938
1415.145508	22463.843750
1414.109375	22678.716797
1413.073242	22456.902344
1412.036133	22625.863281
1411.000000	22647.671875
1409.962891	23040.707031
1408.924805	23151.593750
1407.887695	23156.410156
1406.849609	23537.042969
1405.812500	24037.947266
1404.773438	24675.904297
1403.735352	24791.142578
1402.697266	24754.681641
1401.658203	25582.207031
1400.619141	25634.621094
1399.580078	26045.445313
1398.540039	26061.662109
1397.500977	26438.558594
1396.460938	26601.332031
1395.420898	26615.011719
1394.380859	26438.841797
1393.339844	26435.728516
1392.298828	26382.171875
1391.257813	25821.900391
1390.216797	25883.742188
1389.175781	25772.714844
1388.133789	25858.539063
1387.091797	25937.126953
1386.049805	26030.076172
1385.007813	26058.220703
1383.964844	26508.416016
1382.922852	26430.953125
1381.879883	26643.568359
1380.835938	27011.871094
1379.792969	27135.617188
1378.749023	27462.933594
1377.706055	27452.406250
1376.661133	27748.386719
1375.617188	28113.669922
1374.573242	28170.029297
1373.528320	28647.542969
1372.483398	28653.517578
1371.438477	28740.818359
1370.392578	28875.912109
1369.347656	28669.023438
1368.301758	28729.962891
1367.255859	29213.919922
1366.208984	29193.472656
1365.163086	29311.597656
1364.116211	29398.619141
1363.069336	29294.556641
1362.022461	29486.595703
1360.974609	29418.359375
1359.927734	30058.964844
1358.879883	29518.189453
1357.832031	29977.197266
1356.783203	30130.720703
1355.735352	30119.642578
1354.686523	30451.873047
1353.637695	31148.652344
1352.588867	31356.603516
1351.539063	31948.062500
1350.490234	32675.050781
1349.440430	33163.574219
1348.390625	33885.234375
1347.339844	34532.792969
1346.290039	35099.152344
1345.239258	35986.519531
1344.188477	36642.738281
1343.137695	37669.742188
1342.085938	37935.320313
1341.034180	38552.671875
1339.982422	39174.511719
1338.930664	39857.882813
1337.878906	40495.816406
1336.826172	40660.734375
1335.773438	41203.222656
1334.720703	40548.683594
1333.667969	41043.480469
1332.614258	41454.988281
1331.561523	40874.363281
1330.507813	40396.003906
1329.453125	39787.375000
1328.399414	39444.617188
1327.344727	38570.875000
1326.290039	38548.546875
1325.235352	37680.089844
1324.180664	37489.710938
1323.125000	36662.113281
1322.070313	37085.496094
1321.014648	36743.789063
1319.958008	36373.816406
1318.902344	36138.921875
1317.845703	35878.089844
1316.789063	34888.597656
1315.732422	34512.214844
1314.675781	34211.675781
1313.618164	33573.117188
1312.560547	33114.500000
1311.502930	31885.525391
1310.445313	31023.351563
1309.386719	30121.375000
1308.329102	29630.791016
1307.270508	29062.476563
1306.210938	27908.832031
1305.152344	27749.509766
1304.092773	26851.521484
1303.033203	26435.281250
1301.973633	26184.355469
1300.914063	26063.259766
1299.853516	25586.130859
1298.792969	25460.492188
1297.732422	25620.125000
1296.671875	25628.861328
1295.611328	25406.685547
1294.549805	25443.726563
1293.488281	25129.826172
1292.426758	25004.433594
1291.364258	25001.509766
1290.302734	24859.716797
1289.240234	25099.199219
1288.177734	25009.201172
1287.114258	24787.515625
1286.051758	24878.699219
1284.988281	24817.013672
1283.924805	24689.531250
1282.861328	25109.703125
1281.796875	24648.550781
1280.732422	24648.037109
1279.667969	24936.416016
1278.603516	24809.035156
1277.539063	24897.697266
1276.473633	25223.390625
1275.408203	25816.472656
1274.342773	25567.000000
1273.277344	25451.339844
1272.210938	26051.025391
1271.145508	25822.759766
1270.079102	25721.177734
1269.011719	25535.261719
1267.945313	25382.226563
1266.877930	25657.982422
1265.810547	25352.736328
1264.743164	25014.832031
1263.674805	24805.839844
1262.607422	24533.732422
1261.539063	23917.716797
1260.470703	23751.201172
1259.401367	23535.626953
1258.333008	23233.609375
1257.263672	22896.642578
1256.194336	22590.207031
1255.125000	22468.548828
1254.054688	21952.017578
1252.985352	21821.197266
1251.915039	21716.125000
1250.843750	21583.072266
1249.773438	21202.580078
1248.702148	20985.652344
1247.630859	20852.833984
1246.559570	20608.070313
1245.488281	20519.708984
1244.416016	20415.056641
1243.343750	20364.080078
1242.271484	20327.111328
1241.199219	19882.255859
1240.125977	20132.039063
1239.053711	20104.457031
1237.980469	19827.644531
1236.906250	19958.500000
1235.833008	20277.898438
1234.758789	20157.187500
1233.684570	19901.539063
1232.610352	19969.435547
1231.536133	20014.037109
1230.460938	19765.554688
1229.385742	19789.250000
1228.310547	19987.302734
1227.235352	20101.587891
1226.159180	20125.191406
1225.083008	20276.572266
1224.006836	20376.781250
1222.930664	20319.021484
1221.853516	20193.947266
1220.777344	20356.783203
1219.700195	20654.164063
1218.622070	20619.591797
1217.544922	20740.470703
1216.466797	20872.892578
1215.388672	21114.248047
1214.310547	21397.230469
1213.232422	21610.552734
1212.153320	21721.810547
1211.074219	21791.314453
1209.995117	22090.121094
1208.916016	22238.255859
1207.835938	22272.867188
1206.755859	22052.810547
1205.675781	22205.482422
1204.595703	21978.587891
1203.514648	21992.396484
1202.434570	22027.013672
1201.353516	21906.673828
1200.271484	22107.759766
1199.190430	21668.457031
1198.108398	21518.222656
1197.026367	21395.777344
1195.944336	21301.103516
1194.862305	20950.107422
1193.779297	20661.603516
1192.696289	20493.267578
1191.613281	20276.533203
1190.530273	20175.267578
1189.446289	20297.833984
1188.362305	19790.644531
1187.278320	19687.238281
1186.194336	19387.898438
1185.109375	19303.060547
1184.024414	18886.390625
1182.939453	18930.726563
1181.854492	18970.431641
1180.768555	18678.468750
1179.683594	18637.615234
1178.597656	18813.181641
1177.510742	18841.365234
1176.424805	18351.773438
1175.337891	18506.576172
1174.250977	18739.517578
1173.164063	18162.871094
1172.077148	18375.089844
1170.989258	18536.646484
1169.901367	18392.470703
1168.813477	18512.591797
1167.724609	18641.847656
1166.636719	18440.320313
1165.547852	18454.720703
1164.458984	18859.388672
1163.369141	19055.015625
1162.280273	19186.302734
1161.190430	19143.169922
1160.100586	19329.427734
1159.010742	19455.980469
1157.919922	19520.572266
1156.829102	19736.423828
1155.738281	19457.156250
1154.647461	19530.867188
1153.555664	19606.833984
1152.464844	19652.992188
1151.373047	19495.337891
1150.280273	19527.761719
1149.188477	19493.792969
1148.095703	19436.955078
1147.002930	19082.724609
1145.910156	19023.708984
1144.817383	19184.253906
1143.723633	19001.777344
1142.629883	18762.230469
1141.536133	18739.894531
1140.441406	18509.644531
1139.347656	18601.587891
1138.252930	18483.375000
1137.158203	18376.626953
1136.062500	18329.279297
1134.967773	18327.597656
1133.872070	18157.056641
1132.776367	18262.634766
1131.679688	18110.423828
1130.583984	18434.884766
1129.487305	18380.736328
1128.390625	18032.564453
1127.292969	18074.238281
1126.196289	18330.066406
1125.098633	18114.248047
1124.000977	18137.652344
1122.903320	18227.078125
1121.804688	18207.191406
1120.706055	17959.716797
1119.607422	18037.740234
1118.508789	18227.203125
1117.409180	17979.878906
1116.310547	17866.826172
1115.210938	17940.250000
1114.110352	17918.171875
1113.010742	17848.380859
1111.910156	17917.210938
1110.809570	17792.929688
1109.708984	17909.431641
1108.607422	17880.564453
1107.506836	17742.748047
1106.405273	17568.675781
1105.303711	17719.154297
1104.201172	17393.166016
1103.098633	17443.818359
1101.996094	17342.519531
1100.893555	17130.173828
1099.791016	17421.107422
1098.687500	17442.244141
1097.583984	17395.402344
1096.480469	17667.960938
1095.376953	17593.912109
1094.272461	17705.552734
1093.167969	17780.923828
1092.063477	17856.261719
1090.958008	18015.283203
1089.853516	18045.291016
1088.748047	18050.406250
1087.642578	18299.722656
1086.536133	18659.705078
1085.430664	18942.681641
1084.324219	19123.845703
1083.217773	19447.259766
1082.110352	19456.568359
1081.003906	19707.501953
1079.896484	19953.808594
1078.789063	20222.580078
1077.680664	20574.730469
1076.573242	20545.417969
1075.464844	20619.882813
1074.356445	20407.894531
1073.247070	20779.982422
1072.138672	20250.195313
1071.029297	20308.875000
1069.919922	20088.119141
1068.809570	19820.148438
1067.700195	19536.529297
1066.589844	19361.117188
1065.479492	19278.085938
1064.368164	19237.853516
1063.257813	18531.539063
1062.146484	18837.960938
1061.035156	18372.718750
1059.922852	18119.072266
1058.811523	17897.013672
1057.699219	17713.263672
1056.586914	17644.207031
1055.473633	17633.601563
1054.361328	17551.111328
1053.248047	17502.345703
1052.134766	17476.054688
1051.021484	17211.812500
1049.907227	17286.591797
1048.792969	17181.822266
1047.678711	17032.228516
1046.564453	17039.705078
1045.449219	17105.482422
1044.333984	17216.066406
1043.218750	17035.210938
1042.103516	17210.748047
1040.987305	17166.638672
1039.871094	17124.787109
1038.754883	17091.910156
1037.638672	16958.291016
1036.521484	17117.976563
1035.404297	17181.353516
1034.287109	17244.701172
1033.169922	17006.017578
1032.051758	17219.222656
1030.933594	17132.701172
1029.815430	17240.708984
1028.697266	17248.089844
1027.578125	17250.996094
1026.458984	17104.214844
1025.339844	17129.486328
1024.220703	17261.931641
1023.100586	17164.359375
1021.980469	17211.916016
1020.860352	17324.167969
1019.740234	17380.589844
1018.619141	17566.363281
1017.498047	17372.925781
1016.376953	17090.386719
1015.255859	17264.951172
1014.133789	17011.529297
1013.011719	17201.626953
1011.889648	17139.910156
1010.767578	17196.261719
1009.644531	17355.015625
1008.521484	17210.931641
1007.398438	17329.544922
1006.274414	17256.734375
1005.151367	17255.146484
1004.027344	17229.089844
1002.902344	17392.064453
1001.778320	17450.470703
1000.653320	17573.310547
999.528320	17776.097656
998.403320	17410.011719
997.278320	17463.914063
996.152344	17704.339844
995.026367	17638.251953
993.900391	17856.332031
992.773438	17925.615234
991.646484	17826.236328
990.519531	18092.927734
989.392578	18363.935547
988.265625	18515.082031
987.137695	18730.451172
986.009766	18458.117188
984.881836	18702.205078
983.752930	18445.501953
982.624023	18771.435547
981.495117	18556.900391
980.366211	18554.998047
979.236328	18530.958984
978.106445	18360.875000
976.976563	17936.433594
975.846680	18189.039063
974.715820	17857.701172
973.585938	17603.894531
972.454102	17633.140625
971.323242	17448.003906
970.191406	17251.898438
969.060547	17265.736328
967.927734	16952.705078
966.795898	17026.216797
965.663086	17269.675781
964.530273	17437.986328
963.397461	17189.177734
962.264648	17357.427734
961.130859	17461.640625
959.997070	17629.751953
958.863281	17482.527344
957.729492	17344.183594
956.594727	17457.113281
955.459961	17642.695313
954.325195	17599.117188
953.189453	17410.216797
952.053711	17377.714844
950.917969	17259.380859
949.782227	17244.529297
948.646484	17196.681641
947.509766	17021.269531
946.373047	17002.080078
945.235352	17136.806641
944.098633	17328.625000
942.960938	17353.328125
941.823242	17213.226563
940.685547	17475.191406
939.546875	17510.822266
938.408203	17504.716797
937.269531	17448.119141
936.129883	17687.843750
934.991211	17769.470703
933.851563	17675.552734
932.711914	17967.701172
931.571289	17981.226563
930.431641	18038.591797
929.291016	18229.632813
928.149414	18240.896484
927.008789	18394.558594
925.867188	18423.298828
924.725586	18362.238281
923.583984	17999.066406
922.441406	18001.605469
921.299805	17739.339844
920.157227	17466.251953
919.013672	17508.277344
917.871094	17152.255859
916.727539	16929.767578
915.583984	16864.765625
914.439453	16568.132813
913.295898	16612.488281
912.151367	16536.673828
911.006836	16644.351563
909.861328	16666.820313
908.716797	16573.578125
907.571289	16709.542969
906.424805	16546.501953
905.279297	16527.517578
904.132813	16539.076172
902.986328	16421.972656
901.839844	16407.384766
900.692383	16549.734375
899.545898	16519.867188
898.398438	16572.798828
897.250000	16773.820313
896.102539	16571.884766
894.954102	16666.132813
893.805664	16721.156250
892.656250	16388.792969
891.507813	16611.378906
890.358398	16516.285156
889.208984	16556.064453
888.058594	16456.673828
886.908203	16246.465820
885.758789	16514.464844
884.607422	16426.009766
883.457031	16528.751953
882.305664	16353.459961
881.154297	16571.248047
880.002930	16372.143555
878.850586	16299.004883
877.698242	16343.068359
876.545898	16016.155273
875.393555	16149.182617
874.240234	16021.946289
873.086914	16074.698242
871.933594	16105.750977
870.780273	16006.775391
869.625977	16143.980469
868.471680	15928.079102
867.317383	16060.906250
866.162109	16011.817383
865.007813	15954.092773
863.852539	15965.637695
862.696289	16009.628906
861.541016	16092.532227
860.384766	15915.899414
859.228516	16178.229492
858.072266	15785.501953
856.915039	15954.816406
855.757813	15845.344727
854.600586	15908.723633
853.442383	15885.691406
852.285156	15916.644531
851.126953	16036.083984
849.968750	16295.743164
848.809570	16028.829102
847.650391	16191.300781
846.491211	16153.129883
845.332031	15929.547852
844.171875	15915.164063
843.012695	16111.991211
841.851563	15882.101563
840.691406	16009.910156
839.530273	16066.586914
838.369141	16032.802734
837.208008	16070.071289
836.046875	16139.605469
834.884766	16161.768555
833.722656	15947.282227
832.560547	15982.379883
831.397461	15877.692383
830.234375	16157.865234
829.071289	15913.477539
827.908203	16206.404297
826.744141	16265.029297
825.580078	16080.919922
824.416016	15926.955078
823.251953	15904.017578
822.086914	15917.578125
820.921875	16107.094727
819.756836	16024.056641
818.590820	16164.126953
817.425781	15924.567383
816.259766	16071.025391
815.092773	15998.783203
813.926758	15911.571289
812.759766	15869.389648
811.592773	16069.272461
810.424805	15943.552734
809.257813	15967.760742
808.089844	15987.674805
806.920898	15941.237305
805.752930	15867.005859
804.583984	15869.812500
803.415039	15887.586914
802.246094	15851.900391
801.076172	16015.026367
799.906250	15891.701172
798.736328	15847.486328
797.566406	15752.022461
796.395508	15925.696289
795.224609	16060.855469
794.053711	16048.657227
792.881836	16382.206055
791.710938	16239.781250
790.538086	16692.593750
789.366211	16889.267578
788.194336	17036.806641
787.021484	17585.054688
785.848633	17553.337891
784.674805	17632.435547
783.500977	17168.263672
782.327148	17556.238281
781.153320	17386.142578
779.979492	17139.484375
778.804688	16988.714844
777.629883	16910.361328
776.454102	16957.558594
775.279297	16819.691406
774.103516	16756.310547
772.927734	16801.380859
771.750977	16854.929688
770.575195	16863.830078
769.398438	17087.296875
768.220703	17130.121094
767.043945	17268.482422
765.866211	17822.894531
764.688477	17948.296875
763.510742	18141.544922
762.332031	18239.232422
761.153320	18898.964844
759.974609	19501.138672
758.794922	20228.121094
757.616211	21522.833984
756.436523	22465.171875
755.255859	24379.546875
754.076172	26892.492188
752.895508	29664.759766
751.714844	32848.617188
750.533203	36653.328125
749.352539	40532.484375
748.170898	44521.992188
746.988281	47748.171875
745.806641	49708.222656
744.624023	50519.300781
743.441406	50087.078125
742.258789	49452.164063
741.075195	47883.656250
739.891602	47053.082031
738.708008	46041.261719
737.523438	45412.066406
736.339844	44747.269531
735.155273	44209.402344
733.969727	42618.910156
732.785156	40974.296875
731.599609	39094.230469
730.414063	36291.500000
729.227539	32925.101563
728.041992	30196.724609
726.855469	27448.523438
725.667969	25040.740234
724.481445	23213.230469
723.293945	21780.306641
722.106445	20682.751953
720.918945	19943.486328
719.730469	19023.601563
718.541992	18827.798828
717.353516	18121.011719
716.164063	18007.507813
714.975586	17683.833984
713.786133	17429.666016
712.595703	17362.623047
711.406250	17186.369141
710.215820	17012.296875
709.025391	16972.689453
707.833984	16874.318359
706.642578	16855.746094
705.451172	17049.115234
704.259766	16747.296875
703.068359	16902.845703
701.875977	17106.552734
700.683594	17310.162109
699.490234	17631.050781
698.297852	18251.439453
697.104492	19246.542969
695.910156	20092.478516
694.716797	20640.673828
693.522461	21196.988281
692.328125	21449.552734
691.132813	21846.386719
689.938477	21644.701172
688.743164	21307.152344
687.547852	20890.292969
686.351563	20277.105469
685.155273	19810.509766
683.958984	19444.433594
682.762695	19017.935547
681.565430	18800.505859
680.368164	18476.673828
679.170898	18292.869141
677.973633	17933.816406
676.775391	18248.960938
675.577148	17927.634766
674.378906	18194.660156
673.179688	17961.076172
671.980469	17904.812500
670.781250	17683.908203
669.581055	17398.501953
668.381836	17409.074219
667.181641	17313.408203
665.980469	17024.117188
664.780273	16991.041016
663.579102	16851.824219
662.377930	16947.824219
661.175781	16827.402344
659.973633	16783.998047
658.771484	16898.658203
657.569336	16919.707031
656.367188	16938.666016
655.164063	17034.505859
653.960938	17277.814453
652.756836	17442.076172
651.552734	17784.855469
650.348633	17992.523438
649.144531	18442.955078
647.939453	18581.886719
646.735352	19027.822266
645.529297	18977.791016
644.324219	19172.494141
643.118164	19479.064453
641.912109	19211.310547
640.706055	19018.283203
639.499023	18837.775391
638.292969	18307.277344
637.084961	18066.958984
635.877930	17880.580078
634.669922	17336.177734
633.461914	17056.923828
632.253906	16995.046875
631.044922	17024.214844
629.836914	16693.521484
628.626953	16664.849609
627.417969	16694.068359
626.208008	16531.076172
624.998047	16326.833008
623.788086	16527.558594
622.577148	16313.083984
621.366211	16133.806641
620.155273	16367.462891
618.944336	16213.019531
617.732422	16141.178711
616.520508	15625.863281
615.308594	15925.411133
614.095703	15884.611328
612.882813	15709.838867
611.669922	15745.359375
610.457031	15832.373047
609.243164	15700.990234
608.029297	15631.451172
606.815430	15564.002930
605.600586	15663.324219
604.385742	15620.593750
603.170898	15695.164063
601.955078	15810.840820
600.740234	16138.293945
599.524414	15842.583008
598.307617	15834.801758
597.091797	15808.526367
595.875000	16069.921875
594.658203	16156.584961
593.440430	16150.788086
592.222656	15956.089844
591.004883	15962.656250
589.787109	15981.532227
588.568359	15772.642578
587.349609	15650.006836
586.130859	15693.550781
584.912109	15661.207031
583.692383	15555.078125
582.472656	15520.730469
581.251953	15621.631836
580.032227	15687.660156
578.811523	15628.725586
577.589844	15919.953125
576.369141	15969.487305
575.147461	16147.934570
573.925781	16305.835938
572.703125	16735.740234
571.481445	16971.148438
570.258789	17462.037109
569.035156	17783.025391
567.812500	18089.556641
566.588867	18367.337891
565.365234	18536.718750
564.140625	18987.865234
562.916992	18958.958984
561.692383	19168.910156
560.466797	19301.205078
559.242188	19225.310547
558.016602	18647.611328
556.791016	18192.550781
555.564453	18043.556641
554.337891	17780.470703
553.111328	17199.560547
551.884766	16808.419922
550.657227	16221.892578
549.429688	15945.211914
548.202148	15825.447266
546.974609	15791.238281
545.746094	15651.210938
544.517578	15403.402344
543.288086	15639.877930
542.058594	15402.354492
540.829102	15528.916016
539.599609	15446.028320
538.370117	15395.696289
537.139648	15146.255859
535.909180	15289.006836
534.677734	14980.804688
533.446289	15190.535156
532.214844	15211.369141
530.983398	15203.778320
529.750977	14956.752930
528.519531	15077.029297
527.286133	14970.090820
526.053711	14930.116211
524.820313	14908.404297
523.586914	15020.469727
522.353516	14952.140625
521.119141	15210.001953
519.884766	15034.314453
518.650391	15117.894531
517.415039	15021.259766
516.179688	15082.539063
514.944336	14963.698242
513.708984	14929.877930
