#Wave		#Intensity
2109.224609	11258.556641
2107.712891	11299.906250
2106.201172	11186.669922
2104.687500	11129.694336
2103.175781	11276.048828
2101.662109	11276.916992
2100.150391	11158.828125
2098.636719	11215.883789
2097.123047	11223.371094
2095.607422	11149.950195
2094.093750	11129.385742
2092.578125	11321.731445
2091.064453	11241.737305
2089.548828	11191.471680
2088.033203	11207.202148
2086.517578	11086.059570
2085.000000	11119.940430
2083.484375	11061.503906
2081.966797	11162.939453
2080.449219	11191.838867
2078.931641	11205.901367
2077.414063	11076.682617
2075.894531	11171.442383
2074.376953	11119.654297
2072.857422	11181.448242
2071.337891	11188.916992
2069.818359	11202.961914
2068.298828	11072.265625
2066.777344	11329.696289
2065.257813	11256.570313
2063.736328	11098.003906
2062.214844	11220.512695
2060.693359	11247.676758
2059.171875	11058.005859
2057.648438	11152.525391
2056.126953	10966.240234
2054.603516	11165.797852
2053.080078	11158.479492
2051.556641	11003.488281
2050.033203	11051.985352
2048.507813	11182.467773
2046.984375	11117.758789
2045.458984	11205.545898
2043.933594	11242.484375
2042.408203	11084.396484
2040.882813	10977.166992
2039.355469	11123.877930
2037.830078	11137.874023
2036.302734	11102.744141
2034.775391	11159.299805
2033.248047	11160.186523
2031.718750	11026.897461
2030.191406	11080.161133
2028.662109	11146.486328
2027.134766	11157.186523
2025.605469	11226.736328
2024.076172	11106.651367
2022.544922	11061.790039
2021.015625	11270.192383
2019.484375	11058.699219
2017.955078	11077.569336
2016.423828	11107.860352
2014.892578	11169.154297
2013.359375	10987.241211
2011.828125	11208.445313
2010.294922	11320.251953
2008.761719	11030.773438
2007.230469	11204.536133
2005.695313	11184.213867
2004.162109	11132.928711
2002.628906	11269.077148
2001.093750	11113.520508
1999.558594	11045.994141
1998.023438	11159.272461
1996.488281	11065.711914
1994.953125	10983.586914
1993.417969	11108.199219
1991.880859	11289.710938
1990.343750	11049.783203
1988.806641	11021.406250
1987.269531	11071.098633
1985.732422	11080.124023
1984.193359	10942.850586
1982.656250	11114.414063
1981.117188	11138.046875
1979.578125	11155.171875
1978.039063	11117.069336
1976.500000	11139.061523
1974.958984	11023.054688
1973.417969	11025.581055
1971.878906	11080.033203
1970.337891	11032.251953
1968.796875	11093.167969
1967.253906	11006.482422
1965.712891	10910.106445
1964.169922	11257.927734
1962.626953	11117.780273
1961.083984	11139.724609
1959.541016	10934.862305
1957.998047	11013.522461
1956.455078	11064.621094
1954.910156	11088.176758
1953.365234	11037.265625
1951.820313	11183.803711
1950.275391	11132.893555
1948.730469	11200.086914
1947.183594	11134.639648
1945.638672	11023.946289
1944.091797	11157.398438
1942.544922	11059.676758
1940.998047	11117.119141
1939.449219	11109.916016
1937.902344	11151.169922
1936.353516	11208.555664
1934.804688	11204.565430
1933.255859	11274.828125
1931.707031	10967.429688
1930.158203	11036.098633
1928.607422	11127.321289
1927.058594	11097.546875
1925.507813	11100.034180
1923.957031	11068.665039
1922.406250	11159.802734
1920.853516	10994.686523
1919.302734	11037.468750
1917.750000	11001.306641
1916.197266	11018.302734
1914.644531	11223.666992
1913.091797	11116.660156
1911.539063	11175.462891
1909.984375	11079.774414
1908.431641	11247.950195
1906.876953	11227.878906
1905.322266	11103.293945
1903.767578	11051.107422
1902.210938	10944.292969
1900.656250	11075.358398
1899.099609	11135.674805
1897.542969	11236.123047
1895.986328	11110.086914
1894.429688	11191.229492
1892.873047	11039.571289
1891.314453	11314.893555
1889.755859	10996.392578
1888.199219	11085.510742
1886.640625	10938.813477
1885.080078	11205.904297
1883.521484	11097.720703
1881.960938	11076.139648
1880.402344	11068.990234
1878.841797	11132.342773
1877.281250	11115.572266
1875.720703	10993.106445
1874.158203	11085.254883
1872.597656	10897.209961
1871.035156	10989.339844
1869.472656	11182.242188
1867.910156	11034.291992
1866.347656	11086.344727
1864.783203	11135.175781
1863.220703	11152.009766
1861.656250	11066.531250
1860.091797	11134.512695
1858.527344	11216.846680
1856.962891	11196.904297
1855.396484	11138.637695
1853.832031	11120.317383
1852.265625	11098.810547
1850.699219	11117.215820
1849.132813	11070.184570
1847.566406	11251.327148
1845.998047	11065.508789
1844.431641	11243.384766
1842.863281	11172.448242
1841.294922	11179.653320
1839.726563	11223.512695
1838.156250	11202.020508
1836.587891	11253.821289
1835.017578	11249.851563
1833.449219	11358.948242
1831.878906	11125.692383
1830.306641	11252.277344
1828.736328	11361.301758
1827.166016	11432.093750
1825.593750	11329.460938
1824.021484	11233.233398
1822.449219	11416.902344
1820.876953	11393.825195
1819.304688	11332.610352
1817.730469	11395.370117
1816.158203	11561.371094
1814.583984	11484.274414
1813.009766	11296.043945
1811.435547	11479.424805
1809.859375	11432.552734
1808.285156	11506.318359
1806.708984	11392.817383
1805.132813	11390.411133
1803.556641	11362.628906
1801.980469	11623.461914
1800.404297	11429.173828
1798.826172	11574.170898
1797.248047	11509.921875
1795.671875	11821.202148
1794.093750	11584.264648
1792.513672	11855.803711
1790.935547	11935.635742
1789.355469	11755.812500
1787.777344	11815.055664
1786.197266	11969.216797
1784.617188	12075.851563
1783.035156	12090.699219
1781.455078	12062.843750
1779.873047	12272.157227
1778.292969	12457.669922
1776.710938	12481.905273
1775.128906	12414.486328
1773.544922	12460.834961
1771.962891	12500.845703
1770.378906	12247.135742
1768.794922	12148.246094
1767.212891	12221.441406
1765.626953	12228.328125
1764.042969	12356.694336
1762.458984	12256.286133
1760.873047	12264.735352
1759.287109	12206.958008
1757.701172	12319.454102
1756.115234	12452.391602
1754.529297	12278.005859
1752.941406	12481.786133
1751.355469	12342.118164
1749.767578	12353.681641
1748.179688	12428.215820
1746.591797	12523.179688
1745.001953	12547.285156
1743.414063	12579.247070
1741.824219	12586.025391
1740.234375	12735.917969
1738.644531	12624.730469
1737.054688	12727.388672
1735.462891	12820.572266
1733.873047	12725.148438
1732.281250	12794.725586
1730.689453	13035.482422
1729.097656	13142.652344
1727.505859	13017.407227
1725.912109	13097.848633
1724.320313	13085.661133
1722.726563	13214.694336
1721.132813	13050.318359
1719.539063	13331.437500
1717.945313	13308.231445
1716.349609	13440.240234
1714.755859	13391.940430
1713.160156	13539.544922
1711.564453	13699.620117
1709.968750	13952.044922
1708.371094	14296.761719
1706.775391	14148.119141
1705.177734	14362.716797
1703.580078	14611.654297
1701.982422	14686.796875
1700.384766	14818.226563
1698.787109	14774.420898
1697.187500	15313.916992
1695.587891	15215.302734
1693.990234	15282.418945
1692.390625	15341.690430
1690.789063	15529.056641
1689.189453	15660.106445
1687.587891	15642.731445
1685.988281	15781.506836
1684.386719	15962.373047
1682.785156	16183.741211
1681.181641	16390.970703
1679.580078	16768.164063
1677.976563	16689.738281
1676.373047	16998.089844
1674.769531	17253.298828
1673.166016	17456.958984
1671.562500	17793.001953
1669.957031	17941.923828
1668.353516	18224.751953
1666.748047	18642.958984
1665.142578	19042.302734
1663.537109	19371.417969
1661.929688	19518.285156
1660.324219	20005.884766
1658.716797	20412.375000
1657.109375	20588.476563
1655.501953	20750.505859
1653.894531	21072.613281
1652.285156	21408.572266
1650.677734	21441.324219
1649.068359	21775.505859
1647.458984	22153.042969
1645.849609	22384.417969
1644.240234	22604.824219
1642.628906	23075.089844
1641.019531	23782.638672
1639.408203	24143.820313
1637.796875	24372.966797
1636.185547	24786.607422
1634.572266	25144.240234
1632.960938	25431.943359
1631.347656	25581.554688
1629.734375	26157.316406
1628.121094	26052.578125
1626.507813	26576.867188
1624.894531	26950.689453
1623.279297	27209.755859
1621.664063	27652.949219
1620.048828	28157.869141
1618.433594	28532.576172
1616.818359	28758.585938
1615.203125	29451.664063
1613.585938	29991.333984
1611.968750	30141.115234
1610.351563	30473.250000
1608.734375	30854.699219
1607.117188	30866.666016
1605.498047	31094.916016
1603.878906	31432.734375
1602.261719	31756.505859
1600.640625	31823.843750
1599.021484	32130.410156
1597.402344	32527.898438
1595.781250	32601.193359
1594.162109	33061.652344
1592.541016	33177.980469
1590.919922	32998.199219
1589.296875	32932.574219
1587.675781	33014.937500
1586.052734	33092.640625
1584.429688	33137.957031
1582.806641	33164.765625
1581.183594	33162.300781
1579.560547	33284.550781
1577.935547	33545.281250
1576.312500	33844.375000
1574.687500	33986.394531
1573.062500	34096.042969
1571.435547	34750.101563
1569.810547	35074.812500
1568.183594	35423.980469
1566.558594	35136.664063
1564.931641	34718.843750
1563.304688	34577.750000
1561.675781	34590.320313
1560.048828	34117.589844
1558.419922	33916.828125
1556.791016	33591.808594
1555.162109	33698.183594
1553.533203	33473.082031
1551.904297	33729.773438
1550.273438	33765.492188
1548.642578	34051.140625
1547.011719	34680.074219
1545.380859	34465.718750
1543.750000	34683.597656
1542.119141	34752.765625
1540.486328	35138.980469
1538.853516	35102.347656
1537.220703	35388.789063
1535.587891	35200.562500
1533.955078	35035.371094
1532.320313	34577.992188
1530.685547	34428.296875
1529.052734	34274.078125
1527.416016	33736.101563
1525.781250	33366.523438
1524.146484	33120.914063
1522.509766	32985.429688
1520.873047	32579.578125
1519.236328	31776.744141
1517.599609	31591.232422
1515.962891	31451.605469
1514.324219	31203.652344
1512.687500	31068.740234
1511.048828	30784.349609
1509.410156	30741.113281
1507.771484	30379.125000
1506.130859	29529.326172
1504.492188	29538.214844
1502.851563	29114.218750
1501.210938	28906.794922
1499.570313	28856.384766
1497.927734	28635.392578
1496.287109	28388.601563
1494.644531	28143.439453
1493.001953	28172.384766
1491.359375	27764.523438
1489.716797	27808.750000
1488.074219	27609.550781
1486.429688	27296.365234
1484.785156	27509.445313
1483.140625	27105.193359
1481.496094	27149.501953
1479.851563	26958.248047
1478.207031	26975.216797
1476.560547	26951.164063
1474.914063	27116.951172
1473.267578	27068.580078
1471.621094	27264.625000
1469.972656	26935.470703
1468.326172	26991.859375
1466.677734	26923.826172
1465.029297	26588.886719
1463.380859	26590.716797
1461.732422	26936.683594
1460.082031	26320.031250
1458.431641	26688.630859
1456.783203	26319.244141
1455.132813	25819.751953
1453.480469	25895.937500
1451.830078	25699.558594
1450.177734	25709.130859
1448.527344	25136.035156
1446.875000	24862.775391
1445.220703	24572.992188
1443.568359	24380.125000
1441.916016	24379.375000
1440.261719	24327.224609
1438.607422	24252.421875
1436.953125	24161.027344
1435.298828	24027.369141
1433.642578	24085.591797
1431.988281	23868.947266
1430.332031	23681.080078
1428.675781	23694.050781
1427.019531	23897.166016
1425.361328	23356.345703
1423.705078	23206.457031
1422.046875	23305.476563
1420.388672	22918.929688
1418.730469	22963.693359
1417.072266	22759.753906
1415.412109	22777.406250
1413.753906	22653.435547
1412.093750	22657.542969
1410.433594	22724.892578
1408.773438	23392.916016
1407.111328	23737.029297
1405.451172	24186.332031
1403.789063	24552.685547
1402.126953	24971.525391
1400.464844	25412.740234
1398.802734	25659.798828
1397.138672	25457.281250
1395.474609	25107.562500
1393.812500	24860.171875
1392.146484	24802.169922
1390.482422	24484.357422
1388.818359	23938.439453
1387.152344	24009.777344
1385.486328	24039.056641
1383.820313	23801.212891
1382.154297	23818.517578
1380.488281	23888.310547
1378.820313	23710.632813
1377.154297	23910.855469
1375.486328	23722.751953
1373.818359	23705.576172
1372.148438	24013.539063
1370.480469	24092.173828
1368.810547	23814.326172
1367.140625	24174.464844
1365.470703	24356.296875
1363.800781	24392.871094
1362.130859	24242.382813
1360.458984	24334.314453
1358.787109	24743.291016
1357.115234	24893.384766
1355.443359	24953.710938
1353.771484	24985.607422
1352.097656	25244.634766
1350.423828	25555.835938
1348.751953	25916.193359
1347.076172	26395.861328
1345.402344	27320.251953
1343.728516	27880.003906
1342.052734	28720.083984
1340.376953	29980.558594
1338.701172	30393.158203
1337.025391	30896.550781
1335.347656	31335.599609
1333.671875	31668.609375
1331.994141	31953.773438
1330.316406	32013.800781
1328.638672	31962.064453
1326.960938	32483.792969
1325.281250	32560.035156
1323.601563	32274.460938
1321.921875	31965.191406
1320.242188	31825.707031
1318.562500	31522.617188
1316.880859	30981.660156
1315.201172	30479.603516
1313.519531	29948.027344
1311.837891	29016.812500
1310.154297	28570.500000
1308.472656	28044.146484
1306.789063	27480.884766
1305.105469	26787.169922
1303.421875	26313.519531
1301.738281	25859.376953
1300.054688	25343.093750
1298.369141	24970.972656
1296.683594	24575.277344
1294.998047	24449.705078
1293.312500	23981.632813
1291.626953	23808.798828
1289.939453	23646.414063
1288.253906	23492.990234
1286.566406	23267.035156
1284.878906	22893.048828
1283.189453	22882.058594
1281.501953	22588.273438
1279.812500	22641.001953
1278.123047	22597.507813
1276.433594	22225.552734
1274.744141	22278.320313
1273.052734	22510.017578
1271.363281	22300.974609
1269.671875	22117.152344
1267.980469	22025.044922
1266.289063	21986.171875
1264.595703	21829.126953
1262.904297	21754.863281
1261.210938	21659.955078
1259.517578	21563.611328
1257.824219	21263.617188
1256.128906	21214.621094
1254.435547	21056.468750
1252.740234	21093.089844
1251.044922	20968.947266
1249.349609	20937.746094
1247.652344	21018.583984
1245.957031	21323.390625
1244.259766	21412.943359
1242.562500	21308.007813
1240.865234	21345.974609
1239.167969	21146.861328
1237.468750	20928.697266
1235.769531	20829.841797
1234.072266	20636.857422
1232.371094	20805.847656
1230.671875	20342.326172
1228.972656	20271.619141
1227.271484	19896.626953
1225.570313	19799.589844
1223.869141	19635.000000
1222.167969	19536.591797
1220.464844	19404.443359
1218.763672	19126.972656
1217.060547	19135.914063
1215.357422	18977.517578
1213.654297	18731.138672
1211.949219	18433.517578
1210.246094	18498.337891
1208.541016	18316.751953
1206.835938	18312.656250
1205.130859	18412.634766
1203.423828	18429.031250
1201.718750	18360.435547
1200.011719	18392.947266
1198.304688	18406.402344
1196.597656	18752.226563
1194.888672	18383.517578
1193.181641	18186.207031
1191.472656	18158.718750
1189.763672	18052.244141
1188.054688	18162.275391
1186.343750	18052.919922
1184.634766	17962.615234
1182.923828	17923.505859
1181.212891	17733.902344
1179.501953	17776.669922
1177.791016	17571.113281
1176.078125	17193.333984
1174.365234	17602.636719
1172.652344	17471.693359
1170.939453	17518.841797
1169.226563	17628.701172
1167.511719	17613.068359
1165.798828	17498.273438
1164.083984	17492.878906
1162.369141	17405.853516
1160.652344	17378.619141
1158.937500	17017.740234
1157.220703	17050.324219
1155.503906	17053.765625
1153.787109	16943.632813
1152.070313	16867.029297
1150.351563	16906.888672
1148.632813	16932.175781
1146.916016	17028.730469
1145.195313	17039.433594
1143.476563	16830.568359
1141.757813	16697.388672
1140.037109	16504.677734
1138.316406	15958.958984
1136.595703	15765.046875
1134.875000	15437.598633
1133.152344	15272.929688
1131.429688	15127.207031
1129.708984	15277.636719
1127.984375	14930.273438
1126.261719	14778.918945
1124.539063	14762.521484
1122.814453	14647.522461
1121.089844	14439.788086
1119.365234	14588.710938
1117.640625	14469.477539
1115.914063	14476.341797
1114.187500	14348.494141
1112.462891	14366.963867
1110.734375	14391.215820
1109.007813	14124.511719
1107.281250	14095.259766
1105.552734	14034.189453
1103.824219	14003.521484
1102.095703	13917.912109
1100.367188	13976.924805
1098.636719	13830.645508
1096.908203	13941.673828
1095.177734	13782.462891
1093.447266	13720.105469
1091.714844	13617.337891
1089.984375	13412.101563
1088.251953	13306.560547
1086.519531	13179.417969
1084.787109	13101.389648
1083.054688	13226.796875
1081.320313	13137.252930
1079.585938	13176.078125
1077.851563	13250.922852
1076.117188	13214.756836
1074.382813	13158.432617
1072.648438	12933.583984
1070.912109	13028.574219
1069.175781	12940.648438
1067.439453	12678.570313
1065.701172	12710.220703
1063.964844	12364.853516
1062.226563	12432.524414
1060.488281	12206.751953
1058.750000	12136.381836
1057.011719	12251.497070
1055.271484	12008.669922
1053.531250	12125.195313
1051.791016	11991.690430
1050.050781	12118.218750
1048.310547	12056.573242
1046.568359	12049.509766
1044.826172	12079.766602
1043.083984	12087.048828
1041.341797	11972.378906
1039.599609	12021.275391
1037.855469	12101.697266
1036.113281	12196.417969
1034.369141	12063.189453
1032.623047	12114.881836
1030.878906	12167.981445
1029.132813	12133.680664
1027.386719	12361.459961
1025.640625	12136.708984
1023.894531	12257.026367
1022.148438	12424.511719
1020.400391	12312.925781
1018.652344	12395.924805
1016.904297	12301.554688
1015.156250	12433.127930
1013.406250	12433.131836
1011.658203	12317.377930
1009.908203	12378.842773
1008.158203	12316.003906
1006.408203	12247.480469
1004.656250	12451.694336
1002.904297	12410.290039
1001.152344	12288.984375
999.400391	12263.329102
997.648438	11943.831055
995.896484	11972.458008
994.142578	11815.714844
992.388672	11669.020508
990.634766	11590.799805
988.878906	11435.673828
987.125000	11393.153320
985.369141	11360.620117
983.613281	11442.008789
981.857422	11319.795898
980.099609	11112.247070
978.343750	11160.907227
976.585938	11134.149414
974.828125	11049.092773
973.070313	11082.089844
971.310547	11042.571289
969.552734	11160.826172
967.792969	11247.764648
966.033203	11350.288086
964.273438	11387.432617
962.511719	11711.378906
960.750000	12232.496094
958.990234	12329.016602
957.226563	12463.800781
955.464844	12571.568359
953.703125	12415.488281
951.939453	12238.208984
950.175781	12017.065430
948.412109	11882.476563
946.648438	11606.253906
944.882813	11314.575195
943.117188	11153.329102
941.351563	11339.069336
939.585938	11016.507813
937.820313	10828.548828
936.052734	10756.704102
934.285156	10891.431641
932.517578	10593.311523
930.750000	10585.198242
928.982422	10485.199219
927.212891	10467.219727
925.443359	10375.769531
923.673828	10438.344727
921.904297	10561.621094
920.132813	10426.437500
918.361328	10448.014648
916.591797	10513.333008
914.818359	10519.356445
913.046875	10550.768555
911.275391	10641.401367
909.501953	10719.300781
907.728516	10633.632813
905.955078	10584.649414
904.179688	10679.413086
902.406250	10640.299805
900.630859	10484.305664
898.855469	10650.835938
897.080078	10615.977539
895.302734	10505.131836
893.525391	10468.914063
891.750000	10535.407227
889.970703	10607.495117
888.193359	10524.873047
886.416016	10661.593750
884.636719	10407.527344
882.857422	10233.672852
881.078125	10293.097656
879.296875	10245.752930
877.517578	10267.232422
875.736328	10309.758789
873.955078	10345.246094
872.173828	10302.138672
870.390625	10299.732422
868.609375	10301.534180
866.826172	10247.247070
865.042969	10080.833984
863.259766	9990.180664
861.474609	9920.586914
859.689453	10068.162109
857.904297	10012.586914
856.119141	9948.634766
854.333984	9879.112305
852.546875	9899.193359
850.761719	9881.485352
848.974609	10000.877930
847.185547	9990.145508
845.398438	9912.299805
843.609375	10032.997070
841.822266	10163.419922
840.031250	10140.079102
838.242188	10178.214844
836.453125	10083.652344
834.662109	10139.932617
832.871094	10197.582031
831.080078	10315.216797
829.289063	10316.983398
827.496094	10302.007813
825.703125	10316.327148
823.910156	10511.901367
822.117188	10540.102539
820.324219	10423.346680
818.529297	10610.395508
816.734375	10591.187500
814.939453	10637.444336
813.144531	10632.160156
811.347656	10558.667969
809.550781	10549.228516
807.755859	10343.605469
805.957031	10247.972656
804.160156	10230.264648
802.361328	10065.181641
800.564453	10039.182617
798.765625	10034.041016
796.964844	10288.724609
795.166016	10201.568359
793.365234	9931.133789
791.564453	10084.301758
789.763672	10119.407227
787.962891	9901.916016
786.160156	10066.080078
784.359375	9951.350586
782.556641	9954.553711
780.751953	9846.834961
778.949219	9606.093750
777.144531	9734.098633
775.339844	9625.119141
773.535156	9707.345703
771.730469	9655.202148
769.925781	9659.847656
768.119141	9513.611328
766.312500	9628.996094
764.505859	9771.996094
762.697266	9506.877930
760.890625	9588.990234
759.082031	9572.901367
757.273438	9639.752930
755.464844	9698.280273
753.654297	9713.950195
751.845703	9888.457031
750.035156	10159.545898
748.224609	10263.452148
746.412109	10361.787109
744.601563	10755.385742
742.789063	11111.546875
740.976563	11787.537109
739.164063	13082.368164
737.349609	15052.125000
735.537109	17551.605469
733.722656	20162.896484
731.908203	21984.919922
730.091797	22160.150391
728.277344	20587.853516
726.460938	18343.095703
724.644531	15997.547852
722.828125	14199.398438
721.009766	13088.582031
719.193359	12340.019531
717.375000	11705.940430
715.556641	11278.372070
713.736328	11090.153320
711.917969	10550.255859
710.097656	10359.549805
708.277344	10167.559570
706.457031	10041.568359
704.636719	10283.542969
702.814453	9924.264648
700.992188	10291.014648
699.169922	10044.391602
697.347656	10190.128906
695.523438	10352.250000
693.699219	10264.801758
691.875000	10143.130859
690.050781	10153.054688
688.226563	10186.260742
686.400391	10235.883789
684.574219	10092.424805
682.748047	10122.880859
680.921875	10078.050781
679.095703	10081.129883
677.267578	10182.695313
675.439453	10077.707031
673.611328	9886.630859
671.781250	10027.808594
669.953125	9931.128906
668.123047	10094.087891
666.292969	10037.049805
664.460938	10119.332031
662.630859	10224.785156
660.798828	10360.215820
658.966797	10284.059570
657.134766	10334.822266
655.302734	10329.634766
653.468750	10419.907227
651.634766	10387.433594
649.800781	10416.311523
647.966797	10458.800781
646.130859	10544.866211
644.294922	10506.942383
642.458984	10469.035156
640.623047	10710.234375
638.787109	10905.041016
636.949219	10834.405273
635.111328	10693.059570
633.273438	10504.175781
631.435547	10371.132813
629.595703	10317.001953
627.757813	10398.809570
625.917969	10437.095703
624.076172	10575.891602
622.236328	10752.649414
620.394531	10697.128906
618.552734	10615.841797
616.710938	10766.673828
614.869141	10719.329102
613.025391	10370.851563
611.183594	10238.179688
609.339844	10188.280273
607.494141	9859.154297
605.650391	9885.261719
603.804688	9750.119141
601.958984	9643.487305
600.113281	9425.853516
598.267578	9297.685547
596.419922	9234.551758
594.572266	9230.994141
592.724609	9124.609375
590.876953	9199.532227
589.027344	9259.543945
587.179688	9187.027344
585.330078	9036.145508
583.480469	9078.583008
581.628906	9069.659180
579.779297	8987.798828
577.927734	9097.735352
576.076172	9119.863281
574.222656	9195.970703
572.371094	9106.059570
570.517578	9103.882813
568.664063	9134.078125
566.810547	9177.743164
564.955078	9187.682617
563.101563	9203.007813
561.246094	9280.311523
559.390625	9168.969727
557.533203	9080.578125
555.677734	9078.406250
553.820313	9245.859375
551.962891	9196.541992
550.105469	9167.430664
548.246094	9061.653320
546.386719	9002.998047
544.527344	8936.303711
542.667969	8893.836914
540.808594	8875.581055
538.947266	8936.609375
537.085938	9024.473633
535.224609	9034.401367
533.363281	8906.026367
531.500000	8840.804688
529.638672	8732.666992
527.775391	8799.004883
525.910156	8908.235352
524.046875	8978.520508
522.181641	9240.500977
520.316406	9807.973633
518.451172	9450.495117
516.585938	9110.604492
514.718750	8709.259766
512.851563	8567.902344
510.984375	8405.191406
509.117188	8435.302734
507.250000	8280.728516
505.380859	8314.868164
503.511719	8339.627930
501.642578	8317.572266
499.771484	8188.573730
497.902344	8166.563477
496.031250	8254.137695
494.160156	8230.785156
492.287109	8100.592773
490.416016	8272.242188
488.542969	8200.841797
486.669922	8305.650391
484.796875	8248.952148
482.921875	8153.593750
481.046875	8174.313477
479.171875	8037.682129
477.296875	8082.414063
475.421875	8140.451172
473.544922	8019.914063
471.667969	8261.768555
469.791016	8311.729492
467.914063	8240.500977
466.035156	8384.953125
464.156250	8273.815430
462.277344	8197.323242
460.398438	8147.471680
458.519531	8197.384766
456.638672	8206.056641
454.757813	8117.688965
452.876953	8017.403320
450.994141	8023.453125
449.113281	7917.923828
447.230469	8034.215332
445.347656	7944.665039
443.462891	7873.739258
441.580078	7863.890137
439.695313	7844.758301
437.810547	7849.510254
435.925781	7794.586426
434.039063	7914.686523
432.152344	7744.460449
430.267578	7738.628906
428.378906	7797.714355
426.492188	7773.329590
424.603516	7723.796875
422.714844	7725.917480
420.826172	7884.211426
418.937500	7689.134277
417.046875	7692.583008
415.158203	7549.224609
413.265625	7638.650391
411.375000	7759.759766
409.484375	7709.000488
407.591797	7581.628906
405.699219	7624.725586
403.806641	7492.152344
401.912109	7609.188477
400.019531	7569.083984
