#Wave		#Intensity
1585.210938	11379.274414
1584.209961	11196.946289
1583.208984	11192.128906
1582.208008	11339.607422
1581.206055	11172.515625
1580.204102	10985.528320
1579.202148	11008.203125
1578.200195	11035.857422
1577.198242	11218.128906
1576.195313	11345.467773
1575.192383	11173.594727
1574.189453	11131.400391
1573.186523	11024.432617
1572.182617	11169.144531
1571.178711	11067.194336
1570.174805	11072.373047
1569.170898	10838.519531
1568.166992	10923.403320
1567.162109	11122.739258
1566.158203	10938.786133
1565.153320	10951.448242
1564.147461	10939.230469
1563.142578	10999.135742
1562.136719	11011.775391
1561.130859	10870.291992
1560.125000	10863.070313
1559.119141	11104.326172
1558.113281	10990.236328
1557.106445	10829.002930
1556.099609	10826.760742
1555.092773	10995.824219
1554.084961	10822.277344
1553.078125	10800.183594
1552.070313	10850.051758
1551.062500	10788.270508
1550.054688	10972.044922
1549.045898	10835.875000
1548.038086	10717.114258
1547.029297	10769.423828
1546.020508	10796.930664
1545.011719	10829.380859
1544.001953	10750.350586
1542.992188	10914.052734
1541.982422	10867.224609
1540.972656	10832.792969
1539.962891	10763.725586
1538.952148	10709.533203
1537.942383	10865.649414
1536.931641	10942.550781
1535.919922	10873.515625
1534.909180	10750.115234
1533.897461	10819.575195
1532.886719	10753.078125
1531.874023	10970.761719
1530.862305	10580.640625
1529.850586	10897.062500
1528.837891	10870.113281
1527.825195	10899.957031
1526.812500	10603.968750
1525.799805	10739.970703
1524.786133	10833.972656
1523.772461	10698.521484
1522.758789	10629.716797
1521.745117	10689.160156
1520.731445	10748.578125
1519.716797	10743.887695
1518.702148	10906.767578
1517.687500	10707.410156
1516.672852	10653.464844
1515.657227	10858.126953
1514.642578	10841.105469
1513.626953	10715.775391
1512.610352	10856.304688
1511.594727	10763.010742
1510.579102	10785.383789
1509.562500	10618.352539
1508.545898	10648.122070
1507.529297	10520.526367
1506.511719	10474.100586
1505.494141	10685.744141
1504.477539	10791.643555
1503.458984	10801.691406
1502.441406	10708.578125
1501.423828	10760.382813
1500.405273	10625.579102
1499.386719	10623.377930
1498.368164	10626.084961
1497.348633	10709.757813
1496.330078	10719.803711
1495.310547	10487.043945
1494.291016	10720.265625
1493.271484	10644.499023
1492.250977	10696.214844
1491.231445	10603.330078
1490.210938	10696.682617
1489.190430	10581.789063
1488.168945	10496.331055
1487.148438	10523.537109
1486.126953	10560.523438
1485.105469	10695.391602
1484.083984	10609.978516
1483.061523	10710.529297
1482.040039	10600.687500
1481.017578	10547.136719
1479.995117	10823.670898
1478.971680	10828.759766
1477.949219	10828.958008
1476.925781	10880.467773
1475.902344	10712.094727
1474.878906	10729.412109
1473.855469	10905.444336
1472.831055	10761.583008
1471.806641	10712.974609
1470.782227	10805.926758
1469.757813	10901.279297
1468.733398	10911.214844
1467.708008	10974.799805
1466.682617	11084.686523
1465.657227	11036.068359
1464.631836	10938.722656
1463.605469	11248.366211
1462.579102	11031.636719
1461.552734	11087.806641
1460.526367	11336.341797
1459.500000	11207.379883
1458.472656	11217.224609
1457.445313	11414.466797
1456.417969	11358.565430
1455.390625	11254.031250
1454.362305	11446.276367
1453.334961	11346.628906
1452.306641	11319.960938
1451.277344	11288.440430
1450.249023	11507.250000
1449.219727	11657.934570
1448.191406	11594.782227
1447.162109	11521.940430
1446.131836	11356.855469
1445.102539	11478.310547
1444.072266	11492.916016
1443.041992	11594.877930
1442.011719	11456.600586
1440.981445	11473.625977
1439.950195	11485.792969
1438.918945	11594.942383
1437.887695	11769.499023
1436.856445	11551.343750
1435.825195	11442.322266
1434.792969	11502.933594
1433.760742	11595.007813
1432.728516	11362.537109
1431.696289	11483.654297
1430.663086	11156.895508
1429.629883	11297.366211
1428.596680	11193.390625
1427.563477	11137.840820
1426.530273	11164.547852
1425.496094	10874.463867
1424.461914	10910.884766
1423.427734	10860.271484
1422.393555	10802.428711
1421.358398	10991.056641
1420.323242	10969.444336
1419.288086	10807.761719
1418.252930	10897.268555
1417.217773	10919.141602
1416.181641	11107.544922
1415.145508	10892.876953
1414.109375	10970.225586
1413.073242	10890.752930
1412.036133	10854.722656
1411.000000	10688.505859
1409.962891	10830.916992
1408.924805	10823.839844
1407.887695	10619.177734
1406.849609	11014.468750
1405.812500	10903.786133
1404.773438	10877.433594
1403.735352	10959.432617
1402.697266	10957.148438
1401.658203	11022.249023
1400.619141	11070.479492
1399.580078	10943.081055
1398.540039	11032.192383
1397.500977	10847.142578
1396.460938	11121.351563
1395.420898	10833.004883
1394.380859	11051.830078
1393.339844	11023.095703
1392.298828	11064.034180
1391.257813	10932.039063
1390.216797	10747.275391
1389.175781	10831.454102
1388.133789	10925.197266
1387.091797	10932.514648
1386.049805	10971.017578
1385.007813	10980.719727
1383.964844	10973.630859
1382.922852	10877.833984
1381.879883	10935.489258
1380.835938	10978.740234
1379.792969	10875.811523
1378.749023	10945.407227
1377.706055	10830.551758
1376.661133	10789.975586
1375.617188	10847.572266
1374.573242	10842.912109
1373.528320	10931.582031
1372.483398	10891.015625
1371.438477	10797.839844
1370.392578	10728.618164
1369.347656	10822.018555
1368.301758	10728.913086
1367.255859	10817.492188
1366.208984	10588.219727
1365.163086	10695.902344
1364.116211	10920.579102
1363.069336	10751.128906
1362.022461	10713.064453
1360.974609	10720.371094
1359.927734	10548.679688
1358.879883	10746.902344
1357.832031	10742.266602
1356.783203	10744.787109
1355.735352	10604.231445
1354.686523	10547.176758
1353.637695	10511.597656
1352.588867	10540.375000
1351.539063	10535.784180
1350.490234	10612.185547
1349.440430	10731.422852
1348.390625	10719.648438
1347.339844	10617.416992
1346.290039	10627.091797
1345.239258	10541.578125
1344.188477	10625.014648
1343.137695	10689.386719
1342.085938	10456.469727
1341.034180	10442.388672
1339.982422	10392.656250
1338.930664	10642.394531
1337.878906	10528.484375
1336.826172	10269.709961
1335.773438	10718.823242
1334.720703	10555.100586
1333.667969	10536.265625
1332.614258	10636.118164
1331.561523	10498.617188
1330.507813	10451.333008
1329.453125	10394.579102
1328.399414	10558.408203
1327.344727	10634.435547
1326.290039	10447.292969
1325.235352	10392.955078
1324.180664	10634.840820
1323.125000	10554.424805
1322.070313	10606.683594
1321.014648	10426.843750
1319.958008	10528.826172
1318.902344	10465.066406
1317.845703	10469.964844
1316.789063	10448.833008
1315.732422	10583.840820
1314.675781	10583.978516
1313.618164	10740.181641
1312.560547	10666.996094
1311.502930	10636.386719
1310.445313	10603.426758
1309.386719	10728.776367
1308.329102	10667.462891
1307.270508	10780.936523
1306.210938	10743.248047
1305.152344	10880.262695
1304.092773	10852.007813
1303.033203	10819.044922
1301.973633	10901.694336
1300.914063	10807.408203
1299.853516	10788.622070
1298.792969	10923.091797
1297.732422	10675.641602
1296.671875	10628.612305
1295.611328	10722.973633
1294.549805	10767.824219
1293.488281	10657.212891
1292.426758	10480.716797
1291.364258	10643.297852
1290.302734	10455.108398
1289.240234	10544.675781
1288.177734	10427.166016
1287.114258	10521.404297
1286.051758	10577.974609
1284.988281	10401.750000
1283.924805	10430.111328
1282.861328	10498.413086
1281.796875	10545.538086
1280.732422	10327.179688
1279.667969	10590.402344
1278.603516	10428.483398
1277.539063	10313.585938
1276.473633	10466.322266
1275.408203	10288.102539
1274.342773	10490.047852
1273.277344	10218.067383
1272.210938	10152.583008
1271.145508	10328.634766
1270.079102	10338.168945
1269.011719	10291.448242
1267.945313	10286.925781
1266.877930	10305.831055
1265.810547	10315.359375
1264.743164	10144.565430
1263.674805	10034.716797
1262.607422	10245.601563
1261.539063	10098.332031
1260.470703	10033.016602
1259.401367	10140.835938
1258.333008	10164.411133
1257.263672	10115.489258
1256.194336	9942.683594
1255.125000	10006.018555
1254.054688	10172.145508
1252.985352	10214.376953
1251.915039	9983.297852
1250.843750	10118.961914
1249.773438	10249.898438
1248.702148	10142.676758
1247.630859	10051.835938
1246.559570	10115.034180
1245.488281	9942.586914
1244.416016	10115.400391
1243.343750	10101.590820
1242.271484	10206.685547
1241.199219	10060.001953
1240.125977	10004.264648
1239.053711	9981.167969
1237.980469	10181.700195
1236.906250	10070.076172
1235.833008	10214.622070
1234.758789	10212.447266
1233.684570	9947.278320
1232.610352	10042.890625
1231.536133	10084.953125
1230.460938	10064.198242
1229.385742	10094.610352
1228.310547	9978.539063
1227.235352	10078.687500
1226.159180	10171.820313
1225.083008	10146.417969
1224.006836	10067.597656
1222.930664	9858.754883
1221.853516	10030.797852
1220.777344	10037.944336
1219.700195	9987.062500
1218.622070	10365.487305
1217.544922	10001.361328
1216.466797	10001.545898
1215.388672	10052.747070
1214.310547	9932.358398
1213.232422	9976.597656
1212.153320	9884.084961
1211.074219	9870.388672
1209.995117	10139.309570
1208.916016	10063.031250
1207.835938	9996.045898
1206.755859	9961.499023
1205.675781	10070.466797
1204.595703	10089.139648
1203.514648	9883.391602
1202.434570	10024.685547
1201.353516	9960.102539
1200.271484	9779.943359
1199.190430	10062.170898
1198.108398	9865.888672
1197.026367	9799.081055
1195.944336	9870.905273
1194.862305	10021.222656
1193.779297	10037.548828
1192.696289	9797.615234
1191.613281	9931.692383
1190.530273	9721.880859
1189.446289	10028.948242
1188.362305	10010.652344
1187.278320	10033.873047
1186.194336	9884.162109
1185.109375	9799.057617
1184.024414	9946.755859
1182.939453	9882.410156
1181.854492	9907.933594
1180.768555	9809.074219
1179.683594	9917.496094
1178.597656	9774.935547
1177.510742	9738.311523
1176.424805	9704.002930
1175.337891	9685.814453
1174.250977	9715.935547
1173.164063	9752.942383
1172.077148	9718.657227
1170.989258	9760.243164
1169.901367	9921.316406
1168.813477	9659.541992
1167.724609	9590.845703
1166.636719	9699.024414
1165.547852	9513.240234
1164.458984	9791.271484
1163.369141	9635.383789
1162.280273	9649.372070
1161.190430	9745.947266
1160.100586	9525.942383
1159.010742	9601.861328
1157.919922	9595.207031
1156.829102	9526.664063
1155.738281	9597.947266
1154.647461	9662.325195
1153.555664	9694.604492
1152.464844	9703.965820
1151.373047	9690.423828
1150.280273	9653.994141
1149.188477	9596.979492
1148.095703	9324.887695
1147.002930	9622.580078
1145.910156	9510.710938
1144.817383	9549.820313
1143.723633	9502.031250
1142.629883	9682.847656
1141.536133	9710.464844
1140.441406	9614.687500
1139.347656	9674.288086
1138.252930	9564.855469
1137.158203	9590.188477
1136.062500	9823.251953
1134.967773	9519.852539
1133.872070	9567.995117
1132.776367	9782.658203
1131.679688	9785.103516
1130.583984	9949.456055
1129.487305	9862.945313
1128.390625	9883.604492
1127.292969	9913.370117
1126.196289	9940.842773
1125.098633	9893.130859
1124.000977	9731.565430
1122.903320	9683.917969
1121.804688	9645.395508
1120.706055	9600.061523
1119.607422	9559.296875
1118.508789	9564.048828
1117.409180	9639.307617
1116.310547	9619.024414
1115.210938	9610.117188
1114.110352	9542.114258
1113.010742	9662.759766
1111.910156	9349.394531
1110.809570	9558.617188
1109.708984	9477.054688
1108.607422	9670.263672
1107.506836	9475.208008
1106.405273	9445.915039
1105.303711	9405.288086
1104.201172	9450.883789
1103.098633	9453.365234
1101.996094	9542.013672
1100.893555	9417.515625
1099.791016	9592.261719
1098.687500	9506.329102
1097.583984	9617.541016
1096.480469	9475.010742
1095.376953	9540.886719
1094.272461	9547.866211
1093.167969	9450.713867
1092.063477	9321.918945
1090.958008	9369.666992
1089.853516	9478.471680
1088.748047	9352.014648
1087.642578	9519.564453
1086.536133	9429.322266
1085.430664	9508.633789
1084.324219	9626.324219
1083.217773	9558.707031
1082.110352	9592.761719
1081.003906	9671.964844
1079.896484	9514.070313
1078.789063	9651.942383
1077.680664	9424.161133
1076.573242	9580.040039
1075.464844	9668.178711
1074.356445	9478.879883
1073.247070	9379.853516
1072.138672	9492.771484
1071.029297	9357.723633
1069.919922	9378.210938
1068.809570	9599.188477
1067.700195	9520.510742
1066.589844	9300.001953
1065.479492	9572.628906
1064.368164	9559.280273
1063.257813	9460.423828
1062.146484	9600.092773
1061.035156	9436.038086
1059.922852	9411.483398
1058.811523	9449.892578
1057.699219	9553.472656
1056.586914	9450.248047
1055.473633	9304.375977
1054.361328	9421.395508
1053.248047	9347.460938
1052.134766	9340.920898
1051.021484	9397.241211
1049.907227	9383.957031
1048.792969	9253.994141
1047.678711	9267.667969
1046.564453	9364.324219
1045.449219	9400.390625
1044.333984	9357.971680
1043.218750	9239.360352
1042.103516	9286.632813
1040.987305	9376.453125
1039.871094	9446.073242
1038.754883	9329.782227
1037.638672	9233.693359
1036.521484	9157.791992
1035.404297	9343.773438
1034.287109	9321.581055
1033.169922	9400.064453
1032.051758	9212.362305
1030.933594	9187.975586
1029.815430	9427.394531
1028.697266	9338.151367
1027.578125	9353.972656
1026.458984	9463.618164
1025.339844	9258.276367
1024.220703	9323.229492
1023.100586	9209.544922
1021.980469	9374.924805
1020.860352	9232.266602
1019.740234	9187.839844
1018.619141	9223.735352
1017.498047	9114.653320
1016.376953	9143.858398
1015.255859	9197.571289
1014.133789	9077.421875
1013.011719	9122.209961
1011.889648	9053.366211
1010.767578	9144.910156
1009.644531	9256.453125
1008.521484	9127.514648
1007.398438	8976.375000
1006.274414	9192.464844
1005.151367	9185.984375
1004.027344	9361.895508
1002.902344	9544.398438
1001.778320	9493.375977
1000.653320	9766.902344
999.528320	9451.399414
998.403320	9475.969727
997.278320	9265.070313
996.152344	9211.942383
995.026367	9221.004883
993.900391	9212.303711
992.773438	9010.523438
991.646484	9117.251953
990.519531	9179.565430
989.392578	9164.224609
988.265625	9288.584961
987.137695	9220.019531
986.009766	9027.366211
984.881836	9105.137695
983.752930	9049.949219
982.624023	9030.222656
981.495117	9057.007813
980.366211	8882.311523
979.236328	9108.325195
978.106445	8991.230469
976.976563	9015.784180
975.846680	8985.027344
974.715820	9075.914063
973.585938	9071.687500
972.454102	9162.513672
971.323242	9034.507813
970.191406	9008.195313
969.060547	9054.791992
967.927734	9061.613281
966.795898	9114.799805
965.663086	9077.452148
964.530273	9057.777344
963.397461	9150.644531
962.264648	9236.852539
961.130859	9027.471680
959.997070	9001.206055
958.863281	9069.750000
957.729492	9136.058594
956.594727	9173.689453
955.459961	9048.270508
954.325195	9068.281250
953.189453	9178.571289
952.053711	9079.652344
950.917969	9145.865234
949.782227	9313.278320
948.646484	9187.991211
947.509766	9166.145508
946.373047	9100.324219
945.235352	9263.198242
944.098633	9138.030273
942.960938	9206.319336
941.823242	9074.626953
940.685547	9325.227539
939.546875	9173.799805
938.408203	9274.952148
937.269531	9193.850586
936.129883	9191.796875
934.991211	9264.349609
933.851563	9253.503906
932.711914	9258.015625
931.571289	9286.646484
930.431641	9137.682617
929.291016	9256.191406
928.149414	9113.874023
927.008789	9177.561523
925.867188	9315.692383
924.725586	9195.353516
923.583984	9313.712891
922.441406	9241.583008
921.299805	9189.179688
920.157227	9187.122070
919.013672	9215.688477
917.871094	9152.389648
916.727539	9006.032227
915.583984	9226.983398
914.439453	9071.931641
913.295898	9028.383789
912.151367	9039.466797
911.006836	9118.248047
909.861328	9181.708008
908.716797	9083.595703
907.571289	8983.342773
906.424805	8970.416992
905.279297	9073.119141
904.132813	9180.135742
902.986328	8975.280273
901.839844	9036.488281
900.692383	8966.890625
899.545898	9289.565430
898.398438	9174.189453
897.250000	9119.852539
896.102539	9141.757813
894.954102	9233.320313
893.805664	9174.651367
892.656250	9305.334961
891.507813	9174.876953
890.358398	9338.128906
889.208984	9088.111328
888.058594	9238.261719
886.908203	9194.881836
885.758789	9184.120117
884.607422	9075.586914
883.457031	9053.994141
882.305664	8886.900391
881.154297	8889.241211
880.002930	9071.756836
878.850586	8911.280273
877.698242	9037.291992
876.545898	9013.561523
875.393555	8879.230469
874.240234	8937.943359
873.086914	9055.160156
871.933594	9053.118164
870.780273	9009.905273
869.625977	8858.391602
868.471680	8839.065430
867.317383	8966.996094
866.162109	9032.084961
865.007813	8908.837891
863.852539	9038.828125
862.696289	9151.450195
861.541016	8969.856445
860.384766	8939.717773
859.228516	8950.670898
858.072266	9117.246094
856.915039	8845.058594
855.757813	9156.335938
854.600586	9141.306641
853.442383	9050.697266
852.285156	9076.718750
851.126953	9314.268555
849.968750	9005.712891
848.809570	9236.696289
847.650391	9208.720703
846.491211	9038.419922
845.332031	9034.218750
844.171875	8958.881836
843.012695	8991.335938
841.851563	8980.680664
840.691406	8896.788086
839.530273	8713.862305
838.369141	8860.459961
837.208008	9017.753906
836.046875	8899.489258
834.884766	8813.553711
833.722656	8940.631836
832.560547	8805.256836
831.397461	8943.028320
830.234375	8730.320313
829.071289	8618.725586
827.908203	8816.610352
826.744141	8707.193359
825.580078	8808.314453
824.416016	8724.715820
823.251953	8669.063477
822.086914	8664.949219
820.921875	8748.817383
819.756836	8626.687500
818.590820	8556.090820
817.425781	8753.580078
816.259766	8627.242188
815.092773	8638.142578
813.926758	8741.185547
812.759766	8653.499023
811.592773	8516.585938
810.424805	8604.592773
809.257813	8823.162109
808.089844	8517.199219
806.920898	8519.541992
805.752930	8571.092773
804.583984	8504.970703
803.415039	8419.629883
802.246094	8644.352539
801.076172	8424.348633
799.906250	8452.350586
798.736328	8433.333008
797.566406	8352.374023
796.395508	8429.492188
795.224609	8470.275391
794.053711	8393.631836
792.881836	8368.243164
791.710938	8385.539063
790.538086	8390.028320
789.366211	8484.089844
788.194336	8335.029297
787.021484	8403.477539
785.848633	8508.125977
784.674805	8423.083984
783.500977	8380.686523
782.327148	8453.318359
781.153320	8347.051758
779.979492	8528.229492
778.804688	8460.303711
777.629883	8473.267578
776.454102	8405.383789
775.279297	8346.038086
774.103516	8337.752930
772.927734	8431.516602
771.750977	8467.848633
770.575195	8306.541016
769.398438	8506.470703
768.220703	8330.358398
767.043945	8508.954102
765.866211	8451.809570
764.688477	8502.941406
763.510742	8460.678711
762.332031	8509.662109
761.153320	8393.176758
759.974609	8628.765625
758.794922	8463.541992
757.616211	8478.563477
756.436523	8482.981445
755.255859	8451.378906
754.076172	8451.562500
752.895508	8367.038086
751.714844	8468.866211
750.533203	8361.090820
749.352539	8274.526367
748.170898	8367.840820
746.988281	8406.115234
745.806641	8287.875977
744.624023	8359.978516
743.441406	8290.420898
742.258789	8354.034180
741.075195	8468.327148
739.891602	8438.925781
738.708008	8413.760742
737.523438	8325.263672
736.339844	8226.252930
735.155273	8230.698242
733.969727	8296.329102
732.785156	8165.748535
731.599609	8218.708984
730.414063	8233.691406
729.227539	8174.886230
728.041992	8154.042480
726.855469	8251.203125
725.667969	8371.490234
724.481445	8169.490234
723.293945	8165.509277
722.106445	8289.941406
720.918945	7970.238770
719.730469	8056.782715
718.541992	8187.462891
717.353516	8252.883789
716.164063	8185.804688
714.975586	8173.413086
713.786133	8156.822754
712.595703	8144.441895
711.406250	8104.756348
710.215820	8176.403320
709.025391	8182.923340
707.833984	8065.579590
706.642578	8137.184082
705.451172	8101.739258
704.259766	8150.225098
703.068359	8144.155762
701.875977	7993.402344
700.683594	8041.877441
699.490234	7991.820801
698.297852	8054.940918
697.104492	8168.311035
695.910156	8137.108398
694.716797	8110.107422
693.522461	8235.945313
692.328125	8177.537598
691.132813	8089.859375
689.938477	8192.600586
688.743164	8182.347656
687.547852	8144.914551
686.351563	8201.576172
685.155273	8120.261230
683.958984	8164.363281
682.762695	8091.449707
681.565430	8206.552734
680.368164	8200.485352
679.170898	8223.648438
677.973633	8334.465820
676.775391	8163.514648
675.577148	8268.034180
674.378906	8193.124023
673.179688	8099.479980
671.980469	8310.268555
670.781250	8377.136719
669.581055	8152.227051
668.381836	8427.441406
667.181641	8483.820313
665.980469	8448.542969
664.780273	8325.838867
663.579102	8359.303711
662.377930	8332.402344
661.175781	8461.553711
659.973633	8665.526367
658.771484	8495.080078
657.569336	8684.396484
656.367188	8620.033203
655.164063	8455.948242
653.960938	8611.897461
652.756836	8570.442383
651.552734	8626.610352
650.348633	8628.770508
649.144531	8743.019531
647.939453	8687.042969
646.735352	8776.326172
645.529297	8766.000977
644.324219	8726.647461
643.118164	8863.544922
641.912109	8759.925781
640.706055	8710.236328
639.499023	8882.263672
638.292969	8573.639648
637.084961	8658.637695
635.877930	8805.708984
634.669922	8845.073242
633.461914	8669.189453
632.253906	8733.393555
631.044922	8481.079102
629.836914	8524.615234
628.626953	8425.466797
627.417969	8328.429688
626.208008	8334.770508
624.998047	8413.422852
623.788086	8525.088867
622.577148	8467.355469
621.366211	8209.370117
620.155273	8345.775391
618.944336	8314.951172
617.732422	8298.583984
616.520508	8360.610352
615.308594	8290.618164
614.095703	8152.615723
612.882813	8196.079102
611.669922	8350.811523
610.457031	8400.388672
609.243164	8462.301758
608.029297	8207.026367
606.815430	8112.471191
605.600586	8164.114258
604.385742	8256.893555
603.170898	8203.541992
601.955078	8000.046875
600.740234	8033.156250
599.524414	7946.993652
598.307617	8002.710938
597.091797	7943.312012
595.875000	7996.948730
594.658203	7912.926270
593.440430	7937.791992
592.222656	8038.616699
591.004883	7921.796387
589.787109	8055.415039
588.568359	7955.058594
587.349609	7934.752441
586.130859	7910.353516
584.912109	7890.065918
583.692383	7869.787109
582.472656	7921.249512
581.251953	7964.491211
580.032227	7970.838867
578.811523	7964.895020
577.589844	7934.381836
576.369141	7955.060547
575.147461	8039.174316
573.925781	7953.417480
572.703125	7879.974121
571.481445	8017.221191
570.258789	8035.809082
569.035156	7988.971680
567.812500	7874.710449
566.588867	8105.821289
565.365234	7975.242188
564.140625	8012.197266
562.916992	7971.542969
561.692383	7959.486328
560.466797	7971.926270
559.242188	8047.614746
558.016602	8139.587402
556.791016	7976.576660
555.564453	7982.881836
554.337891	7987.145508
553.111328	8103.501953
551.884766	8048.643555
550.657227	7830.836914
549.429688	8071.385254
548.202148	7988.063477
546.974609	7973.995117
545.746094	8092.225586
544.517578	8076.103516
543.288086	8029.474121
542.058594	8161.844727
540.829102	7895.610840
539.599609	8107.233398
538.370117	8123.643555
537.139648	8018.127930
535.909180	7932.975098
534.677734	8055.025879
533.446289	8124.225098
532.214844	8215.722656
530.983398	7862.693848
529.750977	8027.257324
528.519531	8041.623047
527.286133	8015.417969
526.053711	8066.277832
524.820313	8171.849121
523.586914	8141.577148
522.353516	8091.055176
521.119141	8030.427246
519.884766	8050.841797
518.650391	8008.474609
517.415039	8190.837891
516.179688	8085.714355
514.944336	7905.770020
513.708984	8021.269531
