#Wave		#Intensity
1585.210938	5886.951172
1584.209961	5921.918457
1583.208984	5928.182617
1582.208008	6134.173340
1581.206055	6018.082031
1580.204102	6044.286621
1579.202148	5955.707520
1578.200195	6051.760742
1577.198242	5920.817871
1576.195313	5991.903320
1575.192383	5878.477539
1574.189453	6019.331055
1573.186523	5978.212891
1572.182617	5971.991699
1571.178711	5998.155273
1570.174805	6036.759277
1569.170898	6033.019043
1568.166992	6036.748535
1567.162109	5963.321289
1566.158203	5972.039551
1565.153320	5973.291016
1564.147461	5857.637207
1563.142578	6085.209961
1562.136719	6049.142090
1561.130859	6013.088379
1560.125000	6118.709473
1559.119141	6191.984863
1558.113281	6195.671387
1557.106445	6027.979492
1556.099609	6093.777832
1555.092773	6248.925293
1554.084961	6237.702637
1553.078125	6258.746094
1552.070313	6061.439941
1551.062500	6099.875000
1550.054688	6140.773926
1549.045898	6161.818848
1548.038086	6155.584961
1547.029297	6032.860352
1546.020508	6068.782227
1545.011719	6040.272461
1544.001953	6197.552734
1542.992188	6089.778809
1541.982422	5925.101074
1540.972656	6040.223145
1539.962891	5895.422852
1538.952148	5938.743164
1537.942383	5897.930176
1536.931641	5985.752930
1535.919922	5915.271484
1534.909180	6015.416504
1533.897461	5870.799805
1532.886719	5837.456055
1531.874023	5915.315918
1530.862305	5983.261719
1529.850586	5900.517578
1528.837891	6096.844238
1527.825195	5917.825195
1526.812500	5921.536133
1525.799805	5895.631836
1524.786133	5943.757324
1523.772461	5977.062012
1522.758789	6025.150391
1521.745117	5804.448242
1520.731445	5781.058594
1519.716797	6026.337402
1518.702148	5889.556152
1517.687500	5915.437500
1516.672852	6037.374023
1515.657227	6006.570801
1514.642578	5921.611816
1513.626953	5819.456055
1512.610352	5924.082031
1511.594727	5974.529297
1510.579102	5889.645996
1509.562500	5932.700195
1508.545898	5956.062988
1507.529297	5981.874023
1506.511719	5865.103027
1505.494141	5996.599609
1504.477539	5995.357422
1503.458984	5878.655273
1502.441406	5816.035156
1501.423828	5881.130859
1500.405273	5990.391113
1499.386719	6025.968750
1498.368164	6117.974609
1497.348633	6011.204102
1496.330078	5938.820313
1495.310547	6072.479492
1494.291016	5970.687988
1493.271484	5949.838379
1492.250977	6009.880859
1491.231445	5930.219238
1490.210938	5936.340332
1489.190430	5876.322266
1488.168945	6107.757324
1487.148438	5974.273926
1486.126953	5948.556152
1485.105469	5957.112793
1484.083984	5833.530762
1483.061523	6008.465332
1482.040039	5855.571289
1481.017578	6049.991699
1479.995117	6041.402832
1478.971680	6152.593262
1477.949219	5992.463379
1476.925781	6086.513672
1475.902344	6131.666504
1474.878906	6130.395020
1473.855469	5916.679688
1472.831055	6257.245605
1471.806641	6143.667480
1470.782227	6357.145020
1469.757813	6272.871582
1468.733398	6344.750977
1467.708008	6453.182617
1466.682617	6288.475098
1465.657227	6489.510742
1464.631836	6488.164063
1463.605469	6608.658691
1462.579102	6539.070801
1461.552734	6579.122559
1460.526367	6587.498047
1459.500000	6693.262207
1458.472656	6521.472656
1457.445313	6554.191895
1456.417969	6462.799805
1455.390625	6670.677246
1454.362305	6520.923828
1453.334961	6565.773438
1452.306641	6396.652832
1451.277344	6563.046875
1450.249023	6542.242188
1449.219727	6567.610840
1448.191406	6388.912109
1447.162109	6460.447266
1446.131836	6536.808594
1445.102539	6358.226563
1444.072266	6288.943359
1443.041992	6275.502930
1442.011719	6562.918945
1440.981445	6486.358398
1439.950195	6383.151855
1438.918945	6335.755859
1437.887695	6404.740723
1436.856445	6527.018066
1435.825195	6336.652344
1434.792969	6282.036133
1433.760742	6428.483398
1432.728516	6487.688965
1431.696289	6450.021973
1430.663086	6175.144531
1429.629883	6328.751465
1428.596680	6160.478027
1427.563477	6057.591797
1426.530273	6252.243652
1425.496094	6030.890137
1424.461914	6114.253418
1423.427734	6071.890137
1422.393555	6143.125977
1421.358398	6008.959473
1420.323242	6072.931641
1419.288086	6074.082520
1418.252930	6017.281738
1417.217773	6042.584473
1416.181641	5927.885742
1415.145508	6042.481934
1414.109375	6137.729004
1413.073242	6078.560059
1412.036133	6014.591797
1411.000000	6107.373047
1409.962891	6135.028320
1408.924805	6261.486816
1407.887695	6142.111328
1406.849609	6181.786133
1405.812500	6397.273438
1404.773438	6232.188965
1403.735352	6384.977051
1402.697266	6231.998535
1401.658203	6351.029785
1400.619141	6316.020508
1399.580078	6413.333008
1398.540039	6351.868652
1397.500977	6410.659180
1396.460938	6519.910645
1395.420898	6403.178223
1394.380859	6346.571289
1393.339844	6374.078613
1392.298828	6435.203125
1391.257813	6448.270020
1390.216797	6242.832031
1389.175781	6313.546875
1388.133789	6427.433594
1387.091797	6404.495605
1386.049805	6463.135742
1385.007813	6440.199219
1383.964844	6563.555176
1382.922852	6463.883301
1381.879883	6565.607910
1380.835938	6655.307129
1379.792969	6804.870117
1378.749023	6568.681641
1377.706055	6610.420410
1376.661133	6575.515137
1375.617188	6674.692383
1374.573242	6644.574707
1373.528320	6616.861816
1372.483398	6491.064941
1371.438477	6547.117676
1370.392578	6584.014160
1369.347656	6592.201660
1368.301758	6444.997559
1367.255859	6548.812988
1366.208984	6523.547363
1365.163086	6519.793457
1364.116211	6394.223633
1363.069336	6414.378418
1362.022461	6358.121582
1360.974609	6363.952148
1359.927734	6393.645508
1358.879883	6468.661621
1357.832031	6472.078613
1356.783203	6420.636719
1355.735352	6292.909180
1354.686523	6484.701660
1353.637695	6454.740723
1352.588867	6331.851074
1351.539063	6313.846191
1350.490234	6453.066406
1349.440430	6635.096191
1348.390625	6728.948730
1347.339844	6613.270020
1346.290039	6730.888184
1345.239258	6746.134277
1344.188477	6754.235840
1343.137695	6821.798340
1342.085938	6913.113281
1341.034180	6968.725098
1339.982422	7040.953125
1338.930664	7106.020508
1337.878906	6978.596191
1336.826172	7290.710449
1335.773438	7141.923828
1334.720703	7038.316895
1333.667969	7193.529785
1332.614258	7211.008301
1331.561523	7026.764648
1330.507813	6863.951660
1329.453125	7023.812988
1328.399414	6953.560547
1327.344727	6921.274902
1326.290039	6974.344727
1325.235352	6859.113281
1324.180664	6736.821289
1323.125000	6797.001953
1322.070313	6809.784668
1321.014648	6753.885742
1319.958008	6797.450195
1318.902344	6682.398438
1317.845703	6650.226563
1316.789063	6767.133789
1315.732422	6656.890625
1314.675781	6624.742676
1313.618164	6644.630371
1312.560547	6551.029785
1311.502930	6533.105469
1310.445313	6541.182129
1309.386719	6502.002441
1308.329102	6533.702637
1307.270508	6376.457520
1306.210938	6462.476563
1305.152344	6442.229492
1304.092773	6466.833984
1303.033203	6576.375000
1301.973633	6383.896484
1300.914063	6483.973145
1299.853516	6371.771973
1298.792969	6424.654297
1297.732422	6428.013672
1296.671875	6464.364746
1295.611328	6392.315430
1294.549805	6317.940430
1293.488281	6196.492676
1292.426758	6223.440918
1291.364258	6231.543945
1290.302734	6194.922852
1289.240234	6365.397949
1288.177734	6340.526367
1287.114258	6240.394531
1286.051758	6177.932129
1284.988281	6322.401855
1283.924805	6306.961426
1282.861328	6315.029297
1281.796875	6207.957031
1280.732422	6375.788574
1279.667969	6402.625000
1278.603516	6521.030762
1277.539063	6479.740234
1276.473633	6424.382813
1275.408203	6408.943359
1274.342773	6454.511719
1273.277344	6424.997070
1272.210938	6292.303223
1271.145508	6370.692383
1270.079102	6359.966797
1269.011719	6351.588379
1267.945313	6249.482910
1266.877930	6152.105957
1265.810547	6181.251953
1264.743164	6205.701660
1263.674805	5998.354004
1262.607422	6104.758789
1261.539063	6005.172363
1260.470703	6031.976563
1259.401367	6004.965332
1258.333008	6183.779297
1257.263672	6086.597168
1256.194336	5980.104492
1255.125000	6023.244629
1254.054688	5956.535645
1252.985352	5927.235352
1251.915039	6084.812988
1250.843750	5861.665039
1249.773438	6047.206543
1248.702148	5961.886230
1247.630859	5967.621582
1246.559570	6097.020508
1245.488281	6025.739746
1244.416016	5947.491699
1243.343750	5892.594727
1242.271484	5837.720703
1241.199219	5929.713867
1240.125977	5907.479492
1239.053711	6185.807617
1237.980469	6121.598633
1236.906250	5968.918945
1235.833008	6044.485352
1234.758789	5998.969238
1233.684570	5946.489746
1232.610352	6066.222168
1231.536133	6074.236328
1230.460938	6117.134766
1229.385742	6076.299805
1228.310547	5970.383789
1227.235352	5959.813965
1226.159180	6046.853027
1225.083008	5934.039551
1224.006836	6016.400391
1222.930664	6094.080566
1221.853516	5983.649414
1220.777344	6035.766602
1219.700195	6008.948730
1218.622070	6074.959961
1217.544922	6020.304199
1216.466797	5817.225586
1215.388672	5904.104980
1214.310547	6095.277832
1213.232422	5894.629883
1212.153320	6134.389648
1211.074219	6082.105469
1209.995117	6113.236816
1208.916016	6012.342773
1207.835938	6061.999023
1206.755859	6009.772949
1205.675781	6124.213867
1204.595703	6071.996094
1203.514648	5941.139648
1202.434570	6030.077148
1201.353516	5984.849121
1200.271484	5981.256348
1199.190430	6074.750000
1198.108398	6071.138672
1197.026367	6076.770508
1195.944336	6036.198242
1194.862305	5972.547363
1193.779297	6070.558105
1192.696289	5912.274414
1191.613281	5878.694336
1190.530273	5838.205566
1189.446289	6000.757813
1188.362305	5962.565918
1187.278320	6044.307129
1186.194336	5886.229492
1185.109375	6009.443359
1184.024414	5918.273926
1182.939453	6055.251465
1181.854492	5848.928711
1180.768555	5863.795410
1179.683594	5920.102539
1178.597656	5877.392578
1177.510742	5860.019043
1176.424805	5831.146484
1175.337891	5894.312500
1174.250977	5927.548828
1173.164063	5834.287598
1172.077148	5867.521484
1170.989258	5829.480957
1169.901367	5816.736328
1168.813477	5815.485840
1167.724609	5825.720703
1166.636719	5897.962402
1165.547852	5862.250000
1164.458984	5771.455078
1163.369141	5765.622559
1162.280273	5817.160156
1161.190430	5903.088867
1160.100586	5890.349121
1159.010742	5914.306152
1157.919922	5933.666992
1156.829102	5884.250488
1155.738281	5882.982422
1154.647461	6081.055664
1153.555664	5962.914551
1152.464844	5943.306641
1151.373047	5816.085938
1150.280273	5890.378418
1149.188477	6003.548340
1148.095703	6022.847656
1147.002930	5918.595703
1145.910156	6008.811523
1144.817383	5950.343262
1143.723633	6077.093262
1142.629883	6016.348633
1141.536133	5980.769043
1140.441406	5933.779785
1139.347656	5985.037598
1138.252930	5924.363770
1137.158203	6014.417969
1136.062500	5885.276367
1134.967773	5968.452148
1133.872070	5976.288574
1132.776367	5947.619141
1131.679688	6019.321289
1130.583984	5897.156738
1129.487305	5991.636719
1128.390625	6051.884277
1127.292969	5998.158691
1126.196289	5939.898438
1125.098633	6218.799805
1124.000977	5880.389160
1122.903320	5981.578125
1121.804688	5975.729004
1120.706055	6008.573242
1119.607422	5941.281738
1118.508789	5994.593262
1117.409180	5925.058105
1116.310547	5976.074707
1115.210938	5874.744141
1114.110352	5873.469238
1113.010742	5960.822754
1111.910156	5820.935059
1110.809570	5910.532715
1109.708984	5836.576172
1108.607422	5998.787598
1107.506836	5752.318848
1106.405273	5946.250977
1105.303711	5940.420898
1104.201172	6068.438477
1103.098633	5853.919434
1101.996094	5907.068848
1100.893555	5926.187988
1099.791016	5922.632324
1098.687500	5783.111328
1097.583984	6012.945801
1096.480469	5846.283203
1095.376953	5854.068848
1094.272461	5909.397949
1093.167969	6068.829590
1092.063477	5999.613770
1090.958008	5851.233887
1089.853516	5969.853516
1088.748047	5902.964355
1087.642578	5917.505859
1086.536133	5929.780273
1085.430664	5939.788086
1084.324219	5780.313965
1083.217773	5887.495117
1082.110352	5906.539063
1081.003906	5875.893555
1079.896484	5840.745117
1078.789063	6026.820801
1077.680664	5876.560059
1076.573242	6015.164551
1075.464844	6002.571777
1074.356445	6014.791992
1073.247070	5871.427246
1072.138672	5843.093262
1071.029297	5970.281738
1069.919922	5849.552246
1068.809570	5818.986816
1067.700195	5819.966797
1066.589844	5917.773438
1065.479492	6017.788574
1064.368164	6011.970215
1063.257813	5979.149902
1062.146484	6007.088867
1061.035156	5868.563477
1059.922852	5885.269043
1058.811523	5926.699219
1057.699219	5952.375488
1056.586914	5789.259766
1055.473633	5731.818848
1054.361328	5957.449219
1053.248047	6095.389160
1052.134766	5997.500000
1051.021484	5917.612793
1049.907227	5855.715332
1048.792969	5899.309570
1047.678711	5949.614258
1046.564453	5921.393066
1045.449219	5839.364746
1044.333984	5952.423340
1043.218750	5756.107910
1042.103516	5940.845215
1040.987305	5903.692383
1039.871094	5792.635742
1038.754883	5804.799805
1037.638672	5718.441406
1036.521484	5842.541504
1035.404297	5879.303711
1034.287109	5978.700195
1033.169922	5928.169922
1032.051758	5929.102539
1030.933594	6019.476563
1029.815430	5884.017578
1028.697266	5739.677734
1027.578125	5865.785645
1026.458984	5949.389648
1025.339844	5961.480957
1024.220703	5855.211914
1023.100586	5782.478027
1021.980469	6071.380371
1020.860352	6065.578613
1019.740234	5999.538574
1018.619141	6033.906250
1017.498047	6068.258301
1016.376953	5962.125977
1015.255859	5994.248047
1014.133789	5832.460449
1013.011719	5753.187012
1011.889648	6034.834961
1010.767578	5980.049805
1009.644531	6070.024414
1008.521484	5988.540039
1007.398438	5982.766113
1006.274414	5879.083496
1005.151367	5851.087402
1004.027344	6029.958984
1002.902344	6048.640137
1001.778320	5958.372070
1000.653320	6110.426270
999.528320	6075.740723
998.403320	6058.844238
997.278320	5944.217285
996.152344	6047.280273
995.026367	5972.670898
993.900391	5993.547363
992.773438	6220.812500
991.646484	5970.923828
990.519531	6067.208984
989.392578	6099.133301
988.265625	5982.478027
987.137695	6078.695313
986.009766	5957.663086
984.881836	5967.421875
983.752930	5926.221191
982.624023	6037.868164
981.495117	5801.799316
980.366211	5962.129883
979.236328	5894.403320
978.106445	5959.483887
976.976563	5927.187012
975.846680	5866.147949
974.715820	5880.325684
973.585938	5991.780273
972.454102	5937.397461
971.323242	5843.257813
970.191406	5978.949707
969.060547	5975.411621
967.927734	5876.908203
966.795898	5893.265625
965.663086	6019.993164
964.530273	5895.059082
963.397461	5959.944824
962.264648	5857.139160
961.130859	6001.404785
959.997070	5975.812988
958.863281	5963.459961
957.729492	5935.682617
956.594727	5960.804688
955.459961	5985.914551
954.325195	6063.876465
953.189453	5976.641602
952.053711	6056.770996
950.917969	6011.397949
949.782227	5968.244629
948.646484	6030.719727
947.509766	5822.603027
946.373047	6030.229492
945.235352	5934.339355
944.098633	6034.133789
942.960938	5896.527344
941.823242	6055.610352
940.685547	5801.631836
939.546875	6070.477051
938.408203	6018.618652
937.269531	6032.641113
936.129883	5910.580078
934.991211	5929.008301
933.851563	5949.621582
932.711914	6038.217773
931.571289	6043.446777
930.431641	5956.594238
929.291016	6025.401367
928.149414	6043.775879
927.008789	5902.208008
925.867188	6060.785645
924.725586	5963.074219
923.583984	5974.875977
922.441406	6012.938477
921.299805	6024.723145
920.157227	6172.153320
919.013672	6004.525391
917.871094	6051.292969
916.727539	5879.393555
915.583984	5886.819824
914.439453	5981.661621
913.295898	5921.326172
912.151367	6079.467285
911.006836	5973.271484
909.861328	6004.684570
908.716797	5974.958008
907.571289	5984.530273
906.424805	6042.103027
905.279297	6056.017578
904.132813	5943.423828
902.986328	5966.075684
901.839844	5901.513672
900.692383	6076.735840
899.545898	6103.699707
898.398438	6041.326660
897.250000	6070.463379
896.102539	6066.921387
894.954102	5998.065918
893.805664	5979.304199
892.656250	6128.116211
891.507813	6063.643066
890.358398	6047.052734
889.208984	6147.903809
888.058594	6089.990723
886.908203	6079.925781
885.758789	6015.533203
884.607422	6068.498047
883.457031	5967.207520
882.305664	6000.612305
881.154297	6040.515137
880.002930	6023.958984
878.850586	6150.649902
877.698242	6090.678711
876.545898	6006.872070
875.393555	5972.985352
874.240234	6030.184082
873.086914	6054.838867
871.933594	5869.246582
870.780273	6008.770508
869.625977	5944.589355
868.471680	5990.898438
867.317383	5989.546387
866.162109	5929.741699
865.007813	5947.882813
863.852539	6108.836426
862.696289	5997.120605
861.541016	5965.484375
860.384766	6119.835938
859.228516	5962.789551
858.072266	6032.772461
856.915039	6005.477051
855.757813	5991.156250
854.600586	5929.320801
853.442383	6007.883789
852.285156	6166.296387
851.126953	6026.752441
849.968750	5967.121094
848.809570	5901.042969
847.650391	5934.221680
846.491211	6021.300293
845.332031	5968.190430
844.171875	5938.815918
843.012695	6228.417969
841.851563	6013.694824
840.691406	5954.169922
839.530273	5834.368164
838.369141	5927.787598
837.208008	6066.371094
836.046875	5931.558105
834.884766	5945.275879
833.722656	6014.919922
832.560547	5957.635742
831.397461	6134.758789
830.234375	6012.979004
829.071289	6015.913574
827.908203	5900.661133
826.744141	6084.079102
825.580078	5979.602051
824.416016	5971.802734
823.251953	6015.531738
822.086914	6076.411133
820.921875	5995.633301
819.756836	6114.414551
818.590820	5939.287109
817.425781	6096.625977
816.259766	6033.066406
815.092773	6179.594238
813.926758	5989.608398
812.759766	5996.816895
811.592773	5911.915527
810.424805	6064.760254
809.257813	6097.637695
808.089844	5989.224121
806.920898	5955.761230
805.752930	6039.988770
804.583984	5970.164063
803.415039	6139.892578
802.246094	5999.518555
801.076172	5974.639160
799.906250	5977.553223
798.736328	5971.918945
797.566406	5915.019043
796.395508	5902.993652
795.224609	5869.621094
794.053711	5962.210938
792.881836	5962.986328
791.710938	6002.168457
790.538086	5941.069824
789.366211	6050.618652
788.194336	5981.006836
787.021484	6056.387207
785.848633	5954.835449
784.674805	5957.738770
783.500977	5888.209961
782.327148	5912.424316
781.153320	5870.617676
779.979492	5847.989746
778.804688	5910.506348
777.629883	5943.203613
776.454102	5869.515137
775.279297	5931.982422
774.103516	5826.432617
772.927734	5925.021484
771.750977	5830.147949
770.575195	5864.940918
769.398438	5908.215332
768.220703	5966.337402
767.043945	5897.021484
765.866211	5921.149902
764.688477	5913.428711
763.510742	5882.368164
762.332031	5798.281250
761.153320	5900.889160
759.974609	5886.815918
758.794922	5961.793945
757.616211	5956.190918
756.436523	5882.776855
755.255859	6014.907227
754.076172	6017.767090
752.895508	6062.979004
751.714844	6017.129395
750.533203	6123.705566
749.352539	6164.628418
748.170898	6070.123047
746.988281	6127.960449
745.806641	6312.658691
744.624023	6526.872070
743.441406	6749.442383
742.258789	7001.496582
741.075195	6959.748047
739.891602	7490.470703
738.708008	7740.068359
737.523438	8059.227051
736.339844	8230.474609
735.155273	8331.999023
733.969727	8435.585938
732.785156	8437.870117
731.599609	8201.836914
730.414063	7999.648438
729.227539	7706.906738
728.041992	7477.524902
726.855469	7231.391113
725.667969	6888.467773
724.481445	6806.855469
723.293945	6617.895020
722.106445	6635.321289
720.918945	6286.533691
719.730469	6211.444824
718.541992	6130.079102
717.353516	6128.670898
716.164063	6007.409180
714.975586	5942.962402
713.786133	5996.242188
712.595703	5904.510254
711.406250	5949.370117
710.215820	5884.994141
709.025391	5782.851074
707.833984	5970.459961
706.642578	5822.168945
705.451172	5862.797363
704.259766	5811.100098
703.068359	5826.542480
701.875977	5812.621094
700.683594	5727.426758
699.490234	5765.932129
698.297852	5777.178223
697.104492	5941.351563
695.910156	5787.086426
694.716797	5802.506348
693.522461	5905.847168
692.328125	6025.884277
691.132813	5811.055176
689.938477	5933.150391
688.743164	5887.860352
687.547852	5792.403809
686.351563	5887.239258
685.155273	5814.817383
683.958984	5999.458984
682.762695	5870.636230
681.565430	5913.146484
680.368164	5903.430664
679.170898	5918.771973
677.973633	5821.393555
676.775391	5976.561035
675.577148	5872.954102
674.378906	5934.174805
673.179688	5889.014160
671.980469	5927.268555
670.781250	5886.298340
669.581055	5914.115723
668.381836	6058.590820
667.181641	5988.456055
665.980469	6120.352051
664.780273	6031.497070
663.579102	6098.794922
662.377930	6045.361816
661.175781	6245.778809
659.973633	6094.573242
658.771484	6211.702637
657.569336	6106.313477
656.367188	6188.048828
655.164063	6211.557617
653.960938	6191.424316
652.756836	6254.387207
651.552734	6242.559570
650.348633	6209.974121
649.144531	6198.161133
647.939453	6310.868652
646.735352	6220.195313
645.529297	6181.420898
644.324219	6308.569336
643.118164	6199.297852
641.912109	6212.375488
640.706055	6163.274902
639.499023	6168.065918
638.292969	6234.997559
637.084961	6138.292480
635.877930	6058.195801
634.669922	6110.614746
633.461914	6210.607910
632.253906	6142.962891
631.044922	6013.291992
629.836914	6003.628906
628.626953	6012.578125
627.417969	6093.872559
626.208008	5974.664063
624.998047	6113.781250
623.788086	5965.703125
622.577148	5923.018555
621.366211	6004.237305
620.155273	5928.535156
618.944336	6030.351563
617.732422	5946.424316
616.520508	5796.524902
615.308594	5949.858887
614.095703	6000.028320
612.882813	6048.112793
611.669922	6083.809082
610.457031	5882.538574
609.243164	5988.294434
608.029297	5768.602539
606.815430	5966.990234
605.600586	5973.842773
604.385742	5914.833496
603.170898	5866.139648
601.955078	5905.922852
600.740234	5752.365234
599.524414	5709.909668
598.307617	5731.199219
597.091797	5789.472168
595.875000	5866.209961
594.658203	5721.054199
593.440430	5820.362793
592.222656	5845.706543
591.004883	5957.256836
589.787109	5879.939941
588.568359	5972.962402
587.349609	5743.874512
586.130859	5822.528809
584.912109	5722.758301
583.692383	5805.479980
582.472656	5841.024902
581.251953	5872.455078
580.032227	5842.414063
578.811523	5843.107422
577.589844	5817.181641
576.369141	5717.571777
575.147461	5789.924805
573.925781	5751.750977
572.703125	5875.204102
571.481445	5924.971680
570.258789	5899.061035
569.035156	5877.250000
567.812500	5998.514160
566.588867	5874.523926
565.365234	5905.846680
564.140625	5873.841309
562.916992	5845.934082
561.692383	5875.199219
560.466797	5745.256836
559.242188	5841.866211
558.016602	5832.351074
556.791016	5810.602539
555.564453	5860.230469
554.337891	5807.906250
553.111328	5763.758789
551.884766	5719.630859
550.657227	5883.313477
549.429688	5861.581055
548.202148	5821.532715
546.974609	5909.754395
545.746094	5985.723145
544.517578	5862.246094
543.288086	5909.709473
542.058594	5829.017578
540.829102	5890.699219
539.599609	5934.055664
538.370117	5879.834961
537.139648	5823.607422
535.909180	5936.019043
534.677734	5944.795898
533.446289	5809.399902
532.214844	5808.051270
530.983398	5774.229004
529.750977	5847.966797
528.519531	5887.182129
527.286133	5768.180176
526.053711	5695.870605
524.820313	5733.065918
523.586914	5910.091797
522.353516	5931.008789
521.119141	5980.277832
519.884766	5964.711914
518.650391	5894.480469
517.415039	5783.792480
516.179688	5859.359863
514.944336	5825.623535
513.708984	5893.053711
