#Wave		#Intensity
2109.007813	4715.324219
2107.496094	4644.205566
2105.984375	4778.793457
2104.470703	4805.864746
2102.958984	4740.364746
2101.445313	4587.311523
2099.933594	4807.706055
2098.419922	4649.749023
2096.906250	4620.670898
2095.390625	4687.366699
2093.876953	4684.704590
2092.361328	4604.477051
2090.845703	4738.783203
2089.332031	4638.783203
2087.814453	4561.916016
2086.298828	4661.517090
2084.783203	4629.189453
2083.265625	4656.211914
2081.748047	4627.195313
2080.230469	4586.658691
2078.712891	4579.083008
2077.195313	4561.629395
2075.677734	4642.969727
2074.158203	4600.818848
2072.638672	4552.103027
2071.119141	4531.379395
2069.599609	4689.972656
2068.080078	4573.837402
2066.560547	4600.808105
2065.039063	4611.327637
2063.517578	4565.959473
2061.996094	4620.849609
2060.474609	4575.499023
2058.953125	4498.959473
2057.429688	4557.113281
2055.908203	4569.270508
2054.384766	4522.328125
2052.861328	4596.851074
2051.337891	4543.359863
2049.814453	4566.992676
2048.289063	4631.617676
2046.765625	4456.812500
2045.240234	4544.384766
2043.714844	4559.801758
2042.189453	4567.018555
2040.664063	4536.550781
2039.136719	4604.375000
2037.609375	4529.695801
2036.083984	4540.187500
2034.556641	4462.280273
2033.029297	4507.150391
2031.500000	4458.735352
2029.972656	4559.207031
2028.443359	4530.428223
2026.914063	4498.391113
2025.386719	4428.767090
2023.855469	4516.083008
2022.326172	4513.483887
2020.796875	4434.098145
2019.265625	4475.620605
2017.734375	4446.902344
2016.203125	4444.320313
2014.671875	4507.035156
2013.140625	4435.895508
2011.607422	4439.844238
2010.076172	4478.049316
2008.542969	4561.906250
2007.009766	4484.292969
2005.476563	4515.942871
2003.943359	4511.720215
2002.408203	4531.943359
2000.875000	4542.382324
1999.339844	4435.535156
1997.804688	4636.532715
1996.269531	4563.903320
1994.732422	4515.722656
1993.197266	4495.230957
1991.660156	4560.988281
1990.123047	4499.824219
1988.585938	4549.287598
1987.048828	4548.319336
1985.511719	4422.165527
1983.972656	4424.475586
1982.435547	4425.159180
1980.896484	4490.833008
1979.357422	4525.615234
1977.818359	4490.547363
1976.279297	4465.236816
1974.738281	4506.495605
1973.197266	4482.815430
1971.658203	4485.107910
1970.117188	4549.048340
1968.576172	4561.058105
1967.033203	4524.412598
1965.492188	4505.617188
1963.949219	4446.305664
1962.406250	4584.734863
1960.863281	4494.645996
1959.320313	4542.290039
1957.777344	4557.521484
1956.232422	4486.926758
1954.689453	4427.693848
1953.144531	4408.950195
1951.599609	4518.053223
1950.054688	4641.670898
1948.507813	4520.989258
1946.962891	4523.264648
1945.416016	4506.136719
1943.869141	4422.739746
1942.322266	4538.165039
1940.775391	4475.802246
1939.228516	4513.624512
1937.679688	4536.894531
1936.132813	4429.356934
1934.583984	4441.333984
1933.035156	4584.047852
1931.486328	4481.409668
1929.935547	4494.980957
1928.386719	4540.808105
1926.835938	4504.365723
1925.285156	4477.613281
1923.734375	4470.216797
1922.183594	4501.504395
1920.632813	4490.882813
1919.080078	4435.157227
1917.527344	4453.546387
1915.976563	4489.641602
1914.423828	4448.440918
1912.869141	4497.398926
1911.316406	4493.228516
1909.761719	4476.187500
1908.208984	4484.892090
1906.654297	4398.703125
1905.099609	4558.568848
1903.544922	4433.817383
1901.988281	4513.243164
1900.433594	4425.513672
1898.876953	4456.709961
1897.320313	4409.185547
1895.763672	4512.637695
1894.207031	4428.193359
1892.648438	4411.204590
1891.091797	4413.481445
1889.533203	4412.548340
1887.974609	4371.509766
1886.416016	4561.447754
1884.857422	4491.530762
1883.298828	4513.025879
1881.738281	4528.100586
1880.177734	4453.427246
1878.617188	4465.303711
1877.056641	4497.998535
1875.496094	4431.385742
1873.935547	4404.830566
1872.373047	4410.303223
1870.810547	4391.765625
1869.248047	4394.038086
1867.685547	4450.703125
1866.123047	4494.548340
1864.560547	4349.675293
1862.996094	4427.098145
1861.431641	4355.830078
1859.867188	4446.003418
1858.302734	4473.824219
1856.738281	4405.786133
1855.171875	4387.287109
1853.607422	4429.473633
1852.041016	4463.659668
1850.474609	4523.368652
1848.908203	4447.412109
1847.341797	4505.503906
1845.773438	4367.374023
1844.207031	4369.641113
1842.638672	4464.383789
1841.070313	4421.994629
1839.501953	4384.404297
1837.931641	4404.192871
1836.363281	4473.357910
1834.792969	4372.070801
1833.222656	4380.702148
1831.652344	4416.394531
1830.082031	4393.177734
1828.511719	4352.464844
1826.941406	4453.373535
1825.369141	4455.614746
1823.796875	4500.794922
1822.224609	4356.739746
1820.652344	4514.791504
1819.078125	4456.620605
1817.505859	4396.884766
1815.931641	4516.698242
1814.357422	4399.792969
1812.783203	4429.036621
1811.208984	4436.040039
1809.634766	4508.122070
1808.058594	4432.579590
1806.484375	4323.748047
1804.908203	4378.357910
1803.332031	4434.530273
1801.753906	4400.294434
1800.177734	4410.462402
1798.601563	4360.395508
1797.023438	4395.922363
1795.445313	4407.668945
1793.867188	4419.410156
1792.289063	4464.403809
1790.708984	4385.876465
1789.130859	4392.865234
1787.550781	4434.669922
1785.970703	4417.909668
1784.390625	4502.405273
1782.810547	4404.972168
1781.228516	4445.156250
1779.646484	4409.435059
1778.066406	4489.118164
1776.484375	4368.063965
1774.902344	4430.341797
1773.318359	4503.650391
1771.736328	4384.248535
1770.152344	4395.954102
1768.568359	4436.070801
1766.984375	4400.410156
1765.400391	4377.388184
1763.816406	4521.608887
1762.230469	4403.930664
1760.646484	4448.732910
1759.060547	4408.375977
1757.474609	4388.528320
1755.888672	4445.913086
1754.300781	4444.973633
1752.714844	4440.883301
1751.126953	4384.819336
1749.539063	4550.808105
1747.951172	4397.134766
1746.363281	4454.443359
1744.775391	4384.259766
1743.185547	4406.933105
1741.595703	4420.158691
1740.007813	4472.694824
1738.416016	4470.176758
1736.826172	4510.103516
1735.236328	4362.983398
1733.644531	4429.628906
1732.052734	4383.132324
1730.462891	4415.189453
1728.869141	4436.240723
1727.277344	4378.781250
1725.685547	4533.253906
1724.091797	4515.031738
1722.498047	4448.177734
1720.904297	4395.469727
1719.310547	4546.669922
1717.716797	4457.898438
1716.121094	4535.339355
1714.527344	4470.117676
1712.931641	4511.481445
1711.335938	4497.992676
1709.740234	4508.004883
1708.142578	4558.729492
1706.546875	4567.158691
1704.949219	4619.414063
1703.351563	4621.565918
1701.753906	4590.857422
1700.156250	4519.488281
1698.558594	4527.915039
1696.958984	4602.014160
1695.359375	4565.081055
1693.759766	4628.199219
1692.160156	4541.268555
1690.560547	4598.114746
1688.960938	4603.388672
1687.359375	4547.752441
1685.757813	4716.980469
1684.156250	4570.801270
1682.554688	4647.869141
1680.953125	4587.588379
1679.349609	4691.140137
1677.748047	4688.585938
1676.144531	4754.645996
1674.541016	4716.219727
1672.937500	4765.099121
1671.332031	4801.490234
1669.728516	4753.728516
1668.123047	4875.782715
1666.517578	4938.602539
1664.912109	5016.966309
1663.306641	4930.279297
1661.701172	4904.329590
1660.093750	5054.230957
1658.486328	4969.145996
1656.878906	5128.301270
1655.271484	5117.881348
1653.664063	5203.862305
1652.056641	5246.281738
1650.447266	5287.128418
1648.837891	5374.571289
1647.228516	5294.202637
1645.619141	5386.265625
1644.009766	5518.662109
1642.398438	5562.510742
1640.789063	5628.070313
1639.177734	5834.816406
1637.566406	5780.825195
1635.955078	5821.477051
1634.341797	5778.366699
1632.730469	5994.206543
1631.117188	5912.322754
1629.503906	5940.511719
1627.890625	6053.911133
1626.277344	6209.089355
1624.662109	6336.321777
1623.048828	6322.584961
1621.433594	6491.539063
1619.818359	6593.863281
1618.203125	6716.260742
1616.587891	6841.700684
1614.970703	6878.915039
1613.353516	7016.637695
1611.738281	7063.075195
1610.121094	7106.400879
1608.501953	7185.254883
1606.884766	7118.824219
1605.267578	7169.832520
1603.648438	7222.363770
1602.029297	7262.518066
1600.410156	7342.795898
1598.791016	7537.263184
1597.169922	7552.631348
1595.550781	7561.820313
1593.929688	7547.866211
1592.308594	7476.853516
1590.687500	7398.161621
1589.064453	7325.668945
1587.443359	7194.638184
1585.820313	7186.938477
1584.197266	7065.235840
1582.574219	7171.546387
1580.951172	6979.060547
1579.328125	6959.093750
1577.703125	6743.645020
1576.080078	6808.379395
1574.455078	6751.533203
1572.830078	6688.557617
1571.203125	6714.811035
1569.578125	6728.751465
1567.951172	6836.461914
1566.324219	6802.722656
1564.697266	6623.014648
1563.070313	6550.926270
1561.443359	6683.156250
1559.816406	6580.371582
1558.187500	6465.347168
1556.558594	6476.242676
1554.929688	6491.737793
1553.300781	6542.515625
1551.669922	6534.978027
1550.041016	6516.707031
1548.410156	6475.442871
1546.779297	6316.151367
1545.148438	6458.873047
1543.517578	6469.747070
1541.884766	6250.807617
1540.251953	6304.609375
1538.621094	6257.314941
1536.988281	6303.436035
1535.353516	6208.708008
1533.720703	6204.314453
1532.085938	6001.011230
1530.453125	6010.431152
1528.818359	5963.257813
1527.183594	5937.511719
1525.546875	6009.617676
1523.912109	5936.489746
1522.275391	5838.942871
1520.640625	5865.187988
1519.003906	5886.839355
1517.365234	5848.922852
1515.728516	5985.077637
1514.091797	5788.401855
1512.453125	5825.310547
1510.814453	5831.686523
1509.175781	5995.185059
1507.537109	5874.932129
1505.896484	5882.816895
1504.257813	5831.241699
1502.617188	5711.100098
1500.976563	5726.632813
1499.335938	5746.728516
1497.693359	5774.431152
1496.052734	5587.397461
1494.410156	5546.607422
1492.767578	5627.611328
1491.125000	5527.475586
1489.482422	5587.145996
1487.837891	5689.384277
1486.195313	5554.318359
1484.550781	5709.738770
1482.906250	5697.864746
1481.261719	5620.639648
1479.617188	5538.888184
1477.970703	5599.981934
1476.324219	5580.545410
1474.677734	5561.117188
1473.031250	5569.025391
1471.384766	5576.929688
1469.738281	5596.971191
1468.089844	5576.037109
1466.441406	5583.933105
1464.792969	5538.743652
1463.144531	5563.322754
1461.496094	5654.593750
1459.845703	5601.838379
1458.197266	5586.988281
1456.546875	5572.144531
1454.896484	5630.009766
1453.244141	5533.387695
1451.593750	5574.581543
1449.941406	5527.963867
1448.291016	5498.012207
1446.638672	5462.021484
1444.984375	5427.558594
1443.332031	5247.922363
1441.679688	5257.368652
1440.025391	5174.596191
1438.371094	5220.326660
1436.716797	5250.926270
1435.062500	5257.340332
1433.406250	5229.012207
1431.750000	5168.984375
1430.095703	5201.076172
1428.439453	5193.909180
1426.781250	5241.071777
1425.125000	5129.793457
1423.466797	5175.440430
1421.810547	5150.185547
1420.152344	5170.174805
1418.494141	5152.468750
1416.833984	5202.590332
1415.175781	5242.142090
1413.515625	5076.796875
1411.855469	5144.974609
1410.195313	5110.726563
1408.535156	5183.382813
1406.875000	5213.862305
1405.212891	5312.045410
1403.550781	5270.266602
1401.888672	5389.452148
1400.226563	5295.039551
1398.564453	5478.817871
1396.900391	5531.738281
1395.238281	5414.811523
1393.574219	5427.153320
1391.910156	5433.480469
1390.244141	5363.208008
1388.580078	5425.103027
1386.914063	5465.952637
1385.248047	5431.739746
1383.582031	5558.101563
1381.916016	5582.391602
1380.250000	5735.662598
1378.582031	5839.379883
1376.916016	5785.629883
1375.248047	5772.373535
1373.578125	5744.136230
1371.910156	5871.731445
1370.242188	5958.825684
1368.572266	5842.205078
1366.902344	5761.569824
1365.232422	5739.351074
1363.562500	5745.577637
1361.890625	5647.059570
1360.220703	5699.677734
1358.548828	5650.567871
1356.876953	5650.824707
1355.205078	5731.811035
1353.531250	5738.027344
1351.859375	5636.648438
1350.185547	5859.513672
1348.511719	5753.670410
1346.837891	5785.261719
1345.164063	5913.885254
1343.488281	5973.787598
1341.812500	5932.181641
1340.138672	6156.177734
1338.460938	6095.156250
1336.785156	6202.688477
1335.109375	6132.736328
1333.431641	6150.767578
1331.753906	6074.895020
1330.076172	6039.287109
1328.398438	6023.061035
1326.720703	5983.010742
1325.041016	6063.594238
1323.361328	5846.388184
1321.681641	5882.311523
1320.001953	5846.789551
1318.322266	5744.332520
1316.640625	5943.873047
1314.960938	5866.719727
1313.279297	5743.508789
1311.597656	5713.999512
1309.914063	5547.777344
1308.232422	5598.557129
1306.548828	5493.337891
1304.865234	5395.589844
1303.181641	5379.550781
1301.498047	5500.092285
1299.814453	5420.216309
1298.128906	5410.115723
1296.443359	5204.194336
1294.757813	5306.868164
1293.072266	5326.455078
1291.386719	5245.220215
1289.699219	5192.183105
1288.011719	5232.527344
1286.324219	5266.926758
1284.636719	5276.129883
1282.949219	5291.251953
1281.259766	5258.988770
1279.572266	5253.383301
1277.882813	5163.424805
1276.193359	5137.127930
1274.501953	5239.537598
1272.812500	5130.414063
1271.121094	5056.825195
1269.429688	5117.791016
1267.738281	5008.765625
1266.046875	5044.595215
1264.353516	4996.202148
1262.662109	4952.261230
1260.968750	5032.376953
1259.275391	4985.493652
1257.582031	5034.569824
1255.886719	4846.043457
1254.193359	4802.182129
1252.498047	4789.314453
1250.802734	4820.692383
1249.107422	4709.044922
1247.410156	4668.199219
1245.714844	4686.318359
1244.017578	4580.666992
1242.320313	4625.311523
1240.623047	4708.225586
1238.925781	4605.583496
1237.226563	4542.731445
1235.527344	4625.607422
1233.828125	4573.077637
1232.128906	4533.811035
1230.429688	4532.800293
1228.728516	4547.963867
1227.029297	4473.445313
1225.328125	4635.589355
1223.626953	4483.204590
1221.923828	4491.018555
1220.222656	4476.796875
1218.519531	4491.949707
1216.816406	4486.541992
1215.113281	4375.456055
1213.410156	4380.348145
1211.707031	4545.153809
1210.001953	4376.922852
1208.296875	4384.742676
1206.591797	4460.001465
1204.886719	4337.340820
1203.179688	4318.784180
1201.474609	4385.214844
1199.767578	4330.034180
1198.060547	4387.644531
1196.353516	4392.518555
1194.644531	4359.329590
1192.937500	4329.082031
1191.228516	4429.071777
1189.519531	4407.598633
1187.810547	4396.372559
1186.099609	4423.167969
1184.390625	4403.170898
1182.679688	4324.720703
1180.968750	4404.117188
1179.257813	4391.440918
1177.544922	4514.602539
1175.833984	4440.576660
1174.121094	4508.194336
1172.408203	4448.797852
1170.695313	4336.895020
1168.982422	4400.112305
1167.267578	4504.141602
1165.552734	4427.298340
1163.837891	4384.021973
1162.123047	4359.713379
1160.408203	4331.043457
1158.691406	4267.418945
1156.976563	4314.526367
1155.259766	4275.690918
1153.541016	4185.913086
1151.824219	4327.622559
1150.107422	4325.191406
1148.388672	4420.245117
1146.669922	4202.504395
1144.951172	4187.012695
1143.230469	4126.454102
1141.511719	4007.775146
1139.791016	4124.591309
1138.070313	4013.230469
1136.349609	3989.081055
1134.628906	3951.870850
1132.906250	3894.348633
1131.185547	3838.303467
1129.462891	3947.740234
1127.740234	3835.116943
1126.015625	3853.108643
1124.292969	3840.633789
1122.568359	3828.164307
1120.843750	3834.546387
1119.119141	3820.633545
1117.394531	3796.583008
1115.667969	3837.736816
1113.941406	3860.041992
1112.214844	3728.838867
1110.488281	3738.127930
1108.761719	3806.757324
1107.033203	3736.432861
1105.306641	3680.607666
1103.578125	3705.808838
1101.849609	3749.797607
1100.119141	3798.103516
1098.390625	3735.086182
1096.660156	3705.334961
1094.929688	3691.489990
1093.199219	3645.872559
1091.468750	3627.714111
1089.736328	3622.557861
1088.003906	3670.813232
1086.273438	3678.637451
1084.539063	3532.073730
1082.806641	3581.758057
1081.074219	3699.201904
1079.339844	3672.406494
1077.605469	3683.102539
1075.871094	3649.116211
1074.134766	3704.479004
1072.400391	3664.740234
1070.664063	3652.383545
1068.927734	3601.155029
1067.191406	3603.212891
1065.455078	3521.794434
1063.716797	3611.641846
1061.978516	3462.644775
1060.240234	3565.408203
1058.501953	3643.679688
1056.763672	3552.279785
1055.023438	3585.962891
1053.283203	3503.238770
1051.542969	3465.086670
1049.802734	3541.853516
1048.062500	3490.785889
1046.320313	3586.174316
1044.578125	3529.377930
1042.835938	3527.135498
1041.093750	3470.377930
1039.351563	3574.288086
1037.607422	3606.451416
1035.863281	3455.092773
1034.119141	3633.466553
1032.375000	3496.500000
1030.628906	3508.593018
1028.884766	3510.653809
1027.138672	3502.688965
1025.392578	3466.093994
1023.646484	3502.514404
1021.898438	3561.813965
1020.152344	3490.892822
1018.404297	3522.990234
1016.656250	3489.291016
1014.906250	3488.489990
1013.158203	3572.022461
1011.408203	3516.897949
1009.658203	3541.807129
1007.908203	3532.423096
1006.158203	3494.481445
1004.406250	3533.654785
1002.656250	3460.044434
1000.904297	3469.238281
999.150391	3504.109131
997.398438	3530.405029
995.646484	3495.366455
993.892578	3505.968018
992.138672	3450.994141
990.384766	3453.049561
988.628906	3426.608154
986.875000	3448.610107
985.119141	3419.332764
983.363281	3513.939453
981.607422	3404.945557
979.849609	3510.896240
978.093750	3443.214111
976.335938	3502.164307
974.578125	3435.937012
972.820313	3416.660156
971.060547	3417.292969
969.300781	3484.720459
967.542969	3513.753662
965.781250	3441.916016
964.021484	3470.944824
962.261719	3525.517334
960.500000	3599.937988
958.738281	3489.826904
956.976563	3535.842773
955.214844	3518.002441
953.451172	3457.623535
951.687500	3442.644531
949.923828	3507.055908
948.160156	3370.189209
946.396484	3426.085449
944.630859	3415.375977
942.865234	3391.924805
941.099609	3364.236572
939.333984	3288.430420
937.568359	3317.388916
935.800781	3448.209229
934.033203	3371.020752
932.265625	3358.924805
930.498047	3336.936279
928.730469	3371.502686
926.960938	3374.960205
925.191406	3344.504639
923.421875	3352.204102
921.652344	3361.311768
919.880859	3301.227783
918.109375	3338.575684
916.337891	3329.332031
914.566406	3266.474121
912.794922	3277.000488
911.021484	3272.007568
909.248047	3281.116699
907.474609	3232.424072
905.701172	3241.537842
903.927734	3233.738281
902.152344	3262.568848
900.376953	3312.510986
898.601563	3214.584229
896.826172	3223.689697
895.050781	3237.012939
893.273438	3279.877930
891.496094	3234.098145
889.718750	3282.568848
887.939453	3278.991699
886.162109	3217.779541
884.382813	3212.812988
882.603516	3190.987061
880.824219	3180.409424
879.044922	3152.982910
877.263672	3129.781250
875.482422	3122.031738
873.701172	3180.248291
871.919922	3116.364746
870.138672	3091.789063
868.355469	3152.776123
866.572266	3094.551270
864.789063	3114.855469
863.005859	3115.529053
861.220703	3074.166748
859.435547	3112.671631
857.650391	3067.127197
855.865234	3081.812012
854.080078	3088.090332
852.292969	3140.549805
850.505859	3144.012451
848.718750	3122.293457
846.931641	3209.671143
845.144531	3144.601318
843.355469	3129.885986
841.566406	3066.262207
839.777344	3210.856689
837.988281	3187.753662
836.197266	3167.454346
834.408203	3094.106445
832.617188	3171.553223
830.824219	3084.281982
829.033203	3047.281494
827.240234	3131.658447
825.449219	3105.820557
823.656250	3060.474365
821.861328	3098.787109
820.068359	3020.015869
818.273438	3034.633057
816.478516	3021.383545
814.683594	3073.594971
812.888672	3100.719482
811.091797	3016.470703
809.296875	2989.320068
807.500000	2992.791504
805.701172	3036.600586
803.904297	3053.965820
802.105469	3017.097900
800.308594	2994.147705
798.509766	2996.222656
796.708984	2988.570801
794.910156	2951.751953
793.109375	2949.668457
791.308594	2967.023438
789.507813	3049.609619
787.707031	3011.422119
785.904297	2953.828613
784.101563	2924.003662
782.298828	2956.597168
780.496094	2953.127686
778.693359	2944.114990
776.888672	2912.933594
775.083984	2880.381104
773.279297	2958.654785
771.474609	3010.579834
769.667969	2961.412842
767.861328	2919.189453
766.054688	2894.975586
764.248047	2887.375000
762.441406	2863.179443
760.632813	2908.137695
758.824219	2922.658936
757.015625	2955.141602
755.207031	2951.679932
753.398438	3033.875488
751.587891	2987.578369
749.777344	3055.917236
747.966797	3085.567627
746.154297	3207.679688
744.343750	3206.921387
742.531250	3439.313721
740.718750	3352.986084
738.906250	3553.517822
737.091797	3771.876221
735.277344	4023.209961
733.464844	4197.258789
731.648438	4277.545898
729.833984	4221.441406
728.019531	3964.323730
726.203125	3610.961914
724.386719	3460.087402
722.568359	3345.059814
720.751953	3144.794678
718.933594	3079.408203
717.115234	3031.927979
715.296875	3014.713135
713.478516	3045.609375
711.658203	2972.062988
709.839844	2909.541016
708.019531	2889.623779
706.197266	2869.715820
704.376953	2943.163330
702.554688	2893.058350
700.734375	2917.069824
698.910156	2883.455322
697.087891	2929.400146
695.265625	2882.087158
693.441406	3006.145020
691.617188	2928.685547
689.792969	2915.658936
687.966797	2908.117676
686.140625	2886.884766
684.316406	2947.811768
682.490234	2869.087646
680.662109	2873.880127
678.835938	2808.892578
677.007813	2842.421875
675.179688	2881.405029
673.351563	2932.674316
671.521484	2890.970703
669.693359	2858.852539
667.863281	2922.385986
666.033203	2906.666016
664.201172	2926.458740
662.371094	2895.726807
660.539063	2873.198975
658.707031	2886.161621
656.875000	2927.768066
655.041016	2906.612061
653.208984	2875.920166
651.375000	2985.664307
649.541016	2961.782959
647.705078	3003.320557
645.871094	2993.069092
644.035156	2973.288086
642.199219	2874.538086
640.363281	2922.862793
638.525391	2909.917236
636.689453	2896.977539
634.851563	2862.277588
633.013672	2856.155273
631.173828	2882.669678
629.335938	2880.623291
627.496094	2919.350830
625.656250	2876.532715
623.816406	2847.319580
621.974609	2929.486572
620.132813	2855.466797
618.292969	2805.916504
616.449219	2858.176514
614.607422	2820.860352
612.763672	2776.779053
610.921875	2837.145020
609.078125	2824.265625
607.232422	2781.569824
605.388672	2753.801758
603.542969	2732.821289
601.697266	2749.778564
599.851563	2731.517090
598.005859	2740.342529
596.158203	2726.152344
594.310547	2682.196533
592.462891	2727.556641
590.615234	2694.442139
588.765625	2657.286377
586.916016	2687.747559
585.066406	2678.995605
583.216797	2620.248047
581.367188	2575.038574
579.515625	2596.034424
577.664063	2625.122314
575.812500	2642.045898
573.960938	2685.955322
572.107422	2681.265381
570.253906	2657.690186
568.400391	2643.567383
566.546875	2672.601074
564.693359	2585.682861
562.837891	2571.586914
560.982422	2669.337402
559.126953	2614.813232
557.269531	2592.638672
555.414063	2590.672363
553.556641	2599.476074
551.699219	2649.997070
549.841797	2592.850586
547.982422	2605.682617
546.123047	2601.024658
544.263672	2592.334961
542.404297	2617.255371
540.544922	2523.898193
538.683594	2620.033936
536.822266	2612.690674
534.960938	2602.664795
533.099609	2593.986084
531.236328	2597.392090
529.373047	2615.558594
527.509766	2628.349365
525.646484	2765.880127
523.783203	3007.945557
521.917969	3627.977051
520.052734	4034.588623
518.187500	3695.924072
516.320313	3035.880615
514.455078	2818.165771
512.587891	2617.963135
510.720703	2603.948486
508.853516	2589.940186
506.984375	2545.161133
505.115234	2572.645996
503.246094	2530.566895
501.376953	2536.646973
499.507813	2576.145264
497.636719	2587.557129
495.765625	2620.343262
493.894531	2592.997314
492.021484	2526.932373
490.150391	2531.667969
488.277344	2485.673340
486.404297	2522.447510
484.531250	2497.825684
482.656250	2410.517822
480.781250	2513.966553
478.906250	2473.363770
477.031250	2490.100342
475.156250	2522.821533
473.279297	2530.211426
471.402344	2470.993896
469.525391	2479.724121
467.648438	2459.158447
465.769531	2481.197998
463.890625	2501.895996
462.011719	2457.390869
460.132813	2467.443115
458.251953	2502.757568
456.371094	2510.134766
454.490234	2536.117188
452.609375	2514.247314
450.728516	2553.501709
448.845703	2475.851318
446.962891	2500.488525
445.080078	2522.458740
443.197266	2523.181396
441.312500	2480.113525
439.427734	2460.945801
437.542969	2545.241699
435.658203	2507.502930
433.771484	2512.204834
431.886719	2421.476563
430.000000      2457.998047
428.111328	2457.408936
426.224609	2454.171143
424.335938	2456.231201
422.447266	2462.261475
420.558594	2449.760010
418.669922	2435.941162
416.779297	2473.719971
414.888672	2425.516113
412.998047	2446.090088
411.107422	2405.846924
409.214844	2450.204102
407.324219	2431.119141
405.431641	2438.462158
403.537109	2362.602051
401.644531	2443.895264
399.750000	2381.269775
