#Wave		#Intensity
1585.210938	11534.128906
1584.209961	11461.697266
1583.208984	11444.339844
1582.208008	11431.981445
1581.206055	11484.527344
1580.204102	11374.838867
1579.202148	11369.987305
1578.200195	11681.944336
1577.198242	11547.340820
1576.195313	11557.416016
1575.192383	11295.750977
1574.189453	11475.362305
1573.186523	11532.791992
1572.182617	11475.591797
1571.178711	11470.724609
1570.174805	11326.395508
1569.170898	11324.048828
1568.166992	11456.130859
1567.162109	11488.602539
1566.158203	11267.248047
1565.153320	11364.428711
1564.147461	11292.429688
1563.142578	11471.627930
1562.136719	11252.945313
1561.130859	11332.646484
1560.125000	11414.797852
1559.119141	11417.404297
1558.113281	11424.976563
1557.106445	11516.992188
1556.099609	11144.610352
1555.092773	11455.122070
1554.084961	11187.157227
1553.078125	11358.557617
1552.070313	11517.479492
1551.062500	11358.815430
1550.054688	11237.417969
1549.045898	11212.774414
1548.038086	11247.639648
1547.029297	11451.033203
1546.020508	11163.684570
1545.011719	11220.834961
1544.001953	11173.924805
1542.992188	11451.458984
1541.982422	11533.272461
1540.972656	11355.124023
1539.962891	11481.472656
1538.952148	11281.137695
1537.942383	11261.483398
1536.931641	11239.364258
1535.919922	11397.778320
1534.909180	11420.143555
1533.897461	11333.733398
1532.886719	11291.844727
1531.874023	11487.177734
1530.862305	11257.524414
1529.850586	11339.168945
1528.837891	11317.066406
1527.825195	11475.198242
1526.812500	11509.847656
1525.799805	11275.489258
1524.786133	11458.202148
1523.772461	11428.695313
1522.758789	11278.351563
1521.745117	11347.523438
1520.731445	11567.047852
1519.716797	11372.401367
1518.702148	11328.154297
1517.687500	11419.430664
1516.672852	11291.441406
1515.657227	11328.505859
1514.642578	11281.840820
1513.626953	11419.820313
1512.610352	11557.743164
1511.594727	11272.372070
1510.579102	11321.700195
1509.562500	11289.839844
1508.545898	11240.777344
1507.529297	11238.449219
1506.511719	11280.368164
1505.494141	11371.420898
1504.477539	11243.752930
1503.458984	11248.792969
1502.441406	11212.077148
1501.423828	11175.376953
1500.405273	11153.420898
1499.386719	11192.837891
1498.368164	11327.946289
1497.348633	11291.250000
1496.330078	11232.490234
1495.310547	11284.118164
1494.291016	11392.121094
1493.271484	11316.214844
1492.250977	11304.066406
1491.231445	11255.164063
1490.210938	11358.181641
1489.190430	11147.621094
1488.168945	11118.372070
1487.148438	11277.666992
1486.126953	11407.519531
1485.105469	11197.121094
1484.083984	11277.996094
1483.061523	11136.210938
1482.040039	11239.077148
1481.017578	11222.075195
1479.995117	11332.214844
1478.971680	11320.086914
1477.949219	11386.169922
1476.925781	11151.685547
1475.902344	11266.631836
1474.878906	11330.240234
1473.855469	11428.007813
1472.831055	11284.037109
1471.806641	11367.127930
1470.782227	11315.962891
1469.757813	11274.577148
1468.733398	11340.541016
1467.708008	11328.432617
1466.682617	11447.999023
1465.657227	11426.122070
1464.631836	11396.940430
1463.605469	11284.918945
1462.579102	11414.137695
1461.552734	11360.617188
1460.526367	11509.248047
1459.500000	11365.641602
1458.472656	11453.351563
1457.445313	11455.841797
1456.417969	11553.228516
1455.390625	11499.741211
1454.362305	11426.818359
1453.334961	11482.807617
1452.306641	11332.117188
1451.277344	11485.332031
1450.249023	11485.377930
1449.219727	11645.785156
1448.191406	11509.758789
1447.162109	11473.365234
1446.131836	11536.544922
1445.102539	11614.263672
1444.072266	11614.277344
1443.041992	11772.028320
1442.011719	11480.862305
1440.981445	11444.516602
1439.950195	11505.194336
1438.918945	11657.984375
1437.887695	11536.775391
1436.856445	11505.292969
1435.825195	11667.678711
1434.792969	11619.222656
1433.760742	11599.851563
1432.728516	11510.259766
1431.696289	11536.919922
1430.663086	11345.708984
1429.629883	11498.240234
1428.596680	11394.222656
1427.563477	11084.619141
1426.530273	11362.877930
1425.496094	11329.078125
1424.461914	11181.662109
1423.427734	11486.314453
1422.393555	11138.342773
1421.358398	11353.478516
1420.323242	11261.737305
1419.288086	11244.902344
1418.252930	11133.903320
1417.217773	11141.242188
1416.181641	11262.017578
1415.145508	11363.437500
1414.109375	11332.120117
1413.073242	11250.160156
1412.036133	11168.233398
1411.000000	11079.107422
1409.962891	11361.252930
1408.924805	11279.352539
1407.887695	11236.039063
1406.849609	11065.060547
1405.812500	11183.185547
1404.773438	11183.262695
1403.735352	11274.829102
1402.697266	11077.503906
1401.658203	11149.799805
1400.619141	11207.627930
1399.580078	11152.368164
1398.540039	11248.651367
1397.500977	11443.483398
1396.460938	11236.749023
1395.420898	11179.122070
1394.380859	11277.720703
1393.339844	11325.822266
1392.298828	11316.252930
1391.257813	11049.717773
1390.216797	11390.767578
1389.175781	11268.361328
1388.133789	11467.616211
1387.091797	11328.446289
1386.049805	11170.141602
1385.007813	11371.688477
1383.964844	11376.508789
1382.922852	11167.941406
1381.879883	11168.005859
1380.835938	11422.107422
1379.792969	11232.827148
1378.749023	11297.557617
1377.706055	11220.949219
1376.661133	11364.673828
1375.617188	11132.467773
1374.573242	11118.173828
1373.528320	11245.076172
1372.483398	11374.317383
1371.438477	11283.431641
1370.392578	11235.632813
1369.347656	11154.377930
1368.301758	11357.634766
1367.255859	11245.316406
1366.208984	11429.350586
1365.163086	11094.877930
1364.116211	11157.047852
1363.069336	11288.446289
1362.022461	11247.882813
1360.974609	11161.980469
1359.927734	11049.861328
1358.879883	11188.327148
1357.832031	11412.614258
1356.783203	11255.194336
1355.735352	11088.301758
1354.686523	11250.480469
1353.637695	11202.835938
1352.588867	11045.588867
1351.539063	10967.032227
1350.490234	11295.843750
1349.440430	11186.305664
1348.390625	11162.531250
1347.339844	11093.534180
1346.290039	11291.136719
1345.239258	11086.503906
1344.188477	11069.904297
1343.137695	11129.426758
1342.085938	11096.176758
1341.034180	11029.654297
1339.982422	11082.013672
1338.930664	11103.454102
1337.878906	11286.459961
1336.826172	11027.526367
1335.773438	11260.346680
1334.720703	11291.226563
1333.667969	11201.014648
1332.614258	11193.915039
1331.561523	11141.729492
1330.507813	11172.605469
1329.453125	11020.815430
1328.399414	11305.464844
1327.344727	11065.978516
1326.290039	11160.847656
1325.235352	11103.989258
1324.180664	11348.095703
1323.125000	11170.395508
1322.070313	11078.039063
1321.014648	11198.851563
1319.958008	11295.936523
1318.902344	11179.938477
1317.845703	11066.355469
1316.789063	11274.612305
1315.732422	11078.257813
1314.675781	11161.071289
1313.618164	11196.556641
1312.560547	11194.199219
1311.502930	11208.388672
1310.445313	11222.570313
1309.386719	11243.833008
1308.329102	11168.238281
1307.270508	11170.608398
1306.210938	11092.698242
1305.152344	11236.721680
1304.092773	11203.671875
1303.033203	11201.310547
1301.973633	11295.674805
1300.914063	11116.393555
1299.853516	11217.808594
1298.792969	11222.515625
1297.732422	11302.649414
1296.671875	11271.985352
1295.611328	11234.264648
1294.549805	11140.022461
1293.488281	11267.206055
1292.426758	11187.123047
1291.364258	11187.116211
1290.302734	11064.715820
1289.240234	11154.153320
1288.177734	11196.499023
1287.114258	11107.102539
1286.051758	11095.349609
1284.988281	11137.677734
1283.924805	11135.324219
1282.861328	11297.486328
1281.796875	11205.808594
1280.732422	11067.184570
1279.667969	10829.972656
1278.603516	11116.513672
1277.539063	11001.471680
1276.473633	10846.574219
1275.408203	11156.395508
1274.342773	10874.832031
1273.277344	10978.088867
1272.210938	10945.277344
1271.145508	11039.094727
1270.079102	10846.873047
1269.011719	10938.326172
1267.945313	10926.636719
1266.877930	10750.957031
1265.810547	10835.343750
1264.743164	10818.997070
1263.674805	10989.958984
1262.607422	10788.663086
1261.539063	10781.695313
1260.470703	10898.738281
1259.401367	10816.891602
1258.333008	11022.750000
1257.263672	10873.098633
1256.194336	10840.400391
1255.125000	10737.595703
1254.054688	10786.727539
1252.985352	10931.625977
1251.915039	10898.939453
1250.843750	10817.224609
1249.773438	11060.083984
1248.702148	11046.063477
1247.630859	10878.014648
1246.559570	10775.370117
1245.488281	10752.084961
1244.416016	10714.814453
1243.343750	10840.789063
1242.271484	10703.265625
1241.199219	10931.745117
1240.125977	10742.990234
1239.053711	10773.324219
1237.980469	10934.087891
1236.906250	10822.304688
1235.833008	10840.957031
1234.758789	10740.878906
1233.684570	10796.777344
1232.610352	10785.170898
1231.536133	10873.603516
1230.460938	10792.207031
1229.385742	10852.694336
1228.310547	10873.631836
1227.235352	10727.200195
1226.159180	10822.519531
1225.083008	10771.420898
1224.006836	10771.447266
1222.930664	10666.962891
1221.853516	10625.215820
1220.777344	10748.307617
1219.700195	10681.028320
1218.622070	10748.362305
1217.544922	10671.830078
1216.466797	10644.038086
1215.388672	10760.034180
1214.310547	10787.876953
1213.232422	10808.752930
1212.153320	10720.697266
1211.074219	10646.581055
1209.995117	10880.588867
1208.916016	10938.480469
1207.835938	10688.382813
1206.755859	10739.343750
1205.675781	10697.701172
1204.595703	10554.257813
1203.514648	10711.634766
1202.434570	10656.143555
1201.353516	10630.738281
1200.271484	10616.903320
1199.190430	10801.867188
1198.108398	10769.510742
1197.026367	10603.155273
1195.944336	10621.675781
1194.862305	10619.401367
1193.779297	10587.108398
1192.696289	10566.372070
1191.613281	10596.420898
1190.530273	10598.765625
1189.446289	10857.196289
1188.362305	10651.887695
1187.278320	10534.297852
1186.194336	10691.125977
1185.109375	10670.392578
1184.024414	10536.739258
1182.939453	10502.220703
1181.854492	10622.059570
1180.768555	10702.693359
1179.683594	10633.619141
1178.597656	10525.436523
1177.510742	10553.097656
1176.424805	10562.336914
1175.337891	10619.885742
1174.250977	10578.500977
1173.164063	10498.038086
1172.077148	10560.159180
1170.989258	10544.096680
1169.901367	10355.675781
1168.813477	10121.380859
1167.724609	10553.375977
1166.636719	10415.599609
1165.547852	10468.467773
1164.458984	10413.413086
1163.369141	10548.885742
1162.280273	10519.078125
1161.190430	10248.386719
1160.100586	10413.623047
1159.010742	10374.688477
1157.919922	10436.650391
1156.829102	10303.742188
1155.738281	10193.808594
1154.647461	10404.700195
1153.555664	10317.698242
1152.464844	10322.343750
1151.373047	10356.754883
1150.280273	10230.898438
1149.188477	10485.038086
1148.095703	10350.052734
1147.002930	10414.166016
1145.910156	10242.656250
1144.817383	10366.220703
1143.723633	10251.951172
1142.629883	10341.170898
1141.536133	10368.646484
1140.441406	10229.315430
1139.347656	10190.554688
1138.252930	10250.016602
1137.158203	10085.681641
1136.062500	10425.933594
1134.967773	10364.336914
1133.872070	10273.100586
1132.776367	10346.165039
1131.679688	10391.825195
1130.583984	10430.624023
1129.487305	10524.123047
1128.390625	10467.138672
1127.292969	10355.483398
1126.196289	10660.831055
1125.098633	10442.116211
1124.000977	10282.709961
1122.903320	10253.158203
1121.804688	10403.459961
1120.706055	10137.191406
1119.607422	10262.420898
1118.508789	10105.496094
1117.409180	10201.107422
1116.310547	10162.510742
1115.210938	10137.571289
1114.110352	10253.568359
1113.010742	10030.908203
1111.910156	10080.987305
1110.809570	9960.678711
1109.708984	10144.741211
1108.607422	10235.629883
1107.506836	10185.735352
1106.405273	10013.305664
1105.303711	10133.659180
1104.201172	10129.187500
1103.098633	10111.109375
1101.996094	9977.390625
1100.893555	10167.923828
1099.791016	10084.114258
1098.687500	10177.097656
1097.583984	10147.695313
1096.480469	10066.208008
1095.376953	10145.542969
1094.272461	10125.221680
1093.167969	9989.460938
1092.063477	10145.706055
1090.958008	9998.686523
1089.853516	10096.042969
1088.748047	10234.066406
1087.642578	10114.254883
1086.536133	10057.792969
1085.430664	9983.274414
1084.324219	9990.135742
1083.217773	10024.104492
1082.110352	10044.504883
1081.003906	10295.233398
1079.896484	10033.347656
1078.789063	10092.103516
1077.680664	9940.955078
1076.573242	9981.653320
1075.464844	10166.701172
1074.356445	10051.716797
1073.247070	10114.909180
1072.138672	10085.647461
1071.029297	9932.439453
1069.919922	9995.614258
1068.809570	10027.220703
1067.700195	10108.363281
1066.589844	9991.309570
1065.479492	10160.224609
1064.368164	9971.182617
1063.257813	10047.761719
1062.146484	9933.070313
1061.035156	9948.890625
1059.922852	10117.625977
1058.811523	10115.410156
1057.699219	10009.791992
1056.586914	9899.724609
1055.473633	9924.517578
1054.361328	10030.169922
1053.248047	9980.806641
1052.134766	9969.636719
1051.021484	9911.328125
1049.907227	9918.131836
1048.792969	9949.615234
1047.678711	9958.649414
1046.564453	10066.368164
1045.449219	9913.914063
1044.333984	9891.559570
1043.218750	9996.978516
1042.103516	10057.530273
1040.987305	10109.093750
1039.871094	9876.152344
1038.754883	9871.743164
1037.638672	9943.460938
1036.521484	10050.962891
1035.404297	9939.089844
1034.287109	9999.554688
1033.169922	9941.429688
1032.051758	10021.995117
1030.933594	9914.695313
1029.815430	9865.566406
1028.697266	9966.208008
1027.578125	9905.915039
1026.458984	9926.075195
1025.339844	9937.291016
1024.220703	9926.168945
1023.100586	9930.680664
1021.980469	9886.082031
1020.860352	9859.355469
1019.740234	9792.478516
1018.619141	9611.868164
1017.498047	9841.684570
1016.376953	9777.083984
1015.255859	9654.551758
1014.133789	9728.196289
1013.011719	9661.432617
1011.889648	9712.764648
1010.767578	9839.798828
1009.644531	9824.265625
1008.521484	9710.785156
1007.398438	9859.990234
1006.274414	9833.333984
1005.151367	9802.240234
1004.027344	9935.752930
1002.902344	9686.718750
1001.778320	9878.001953
1000.653320	9738.005859
999.528320	9822.521484
998.403320	9862.562500
997.278320	9815.955078
996.152344	9862.640625
995.026367	9700.594727
993.900391	9749.503906
992.773438	9698.519531
991.646484	9618.711914
990.519531	9709.752930
989.392578	9676.551758
988.265625	9543.583008
987.137695	9599.107422
986.009766	9563.733398
984.881836	9632.522461
983.752930	9637.033203
982.624023	9694.698242
981.495117	9723.549805
980.366211	9612.910156
979.236328	9697.101563
978.106445	9559.959961
976.976563	9427.302734
975.846680	9555.715820
974.715820	9624.361328
973.585938	9668.654297
972.454102	9690.822266
971.323242	9768.229492
970.191406	9560.574219
969.060547	9717.500000
967.927734	9746.258789
966.795898	9527.704102
965.663086	9492.472656
964.530273	9620.577148
963.397461	9576.512695
962.264648	9521.436523
961.130859	9589.896484
959.997070	9554.685547
958.863281	9594.446289
957.729492	9468.879883
956.594727	9524.065430
955.459961	9843.601563
954.325195	9643.170898
953.189453	9544.127930
952.053711	9740.151367
950.917969	9583.898438
949.782227	9601.567383
948.646484	9452.014648
947.509766	9555.492188
946.373047	9577.552734
945.235352	9636.979492
944.098633	9535.909180
942.960938	9573.340820
941.823242	9661.291016
940.685547	9623.986328
939.546875	9661.370117
938.408203	9615.297852
937.269531	9540.706055
936.129883	9692.209961
934.991211	9567.163086
933.851563	9556.250000
932.711914	9602.367188
931.571289	9455.494141
930.431641	9670.421875
929.291016	9670.451172
928.149414	9587.208008
927.008789	9663.934570
925.867188	9681.486328
924.725586	9558.875977
923.583984	9561.115234
922.441406	9436.395508
921.299805	9668.444336
920.157227	9589.701172
919.013672	9672.863281
917.871094	9585.406250
916.727539	9626.987305
915.583984	9725.384766
914.439453	9515.584961
913.295898	9535.301758
912.151367	9491.658203
911.006836	9485.162109
909.861328	9598.760742
908.716797	9585.692383
907.571289	9587.907227
906.424805	9585.755859
905.279297	9561.789063
904.132813	9437.502930
902.986328	9437.564453
901.839844	9365.682617
900.692383	9424.607422
899.545898	9474.790039
898.398438	9341.943359
897.250000	9483.601563
896.102539	9461.871094
894.954102	9468.453125
893.805664	9609.984375
892.656250	9601.295898
891.507813	9566.500977
890.358398	9546.948242
889.208984	9453.461914
888.058594	9573.091797
886.908203	9547.026367
885.758789	9536.184570
884.607422	9381.945313
883.457031	9338.560547
882.305664	9462.419922
881.154297	9464.631836
880.002930	9458.158203
878.850586	9451.686523
877.698242	9364.934570
876.545898	9447.427734
875.393555	9371.557617
874.240234	9391.127930
873.086914	9445.375000
871.933594	9317.538086
870.780273	9308.935547
869.625977	9493.145508
868.471680	9202.938477
867.317383	9274.485352
866.162109	9244.248047
865.007813	9341.725586
863.852539	9229.255859
862.696289	9151.450195
861.541016	9235.902344
860.384766	9242.466797
859.228516	9339.830078
858.072266	9361.497070
856.915039	9290.228516
855.757813	9482.576172
854.600586	9286.029297
853.442383	9435.098633
852.285156	9325.011719
851.126953	9314.268555
849.968750	9450.279297
848.809570	9361.837891
847.650391	9370.504883
846.491211	9381.324219
845.332031	9262.769531
844.171875	9252.049805
843.012695	9219.783203
841.851563	9321.119141
840.691406	9245.766602
839.530273	9138.140625
838.369141	9187.747070
837.208008	9323.440430
836.046875	9377.285156
834.884766	9515.023438
833.722656	9149.303711
832.560547	9151.531250
831.397461	9237.617188
830.234375	9082.886719
829.071289	9330.146484
827.908203	9190.505859
826.744141	9255.018555
825.580078	9244.327148
824.416016	9132.713867
823.251953	9182.166016
822.086914	9210.130859
820.921875	9214.476563
819.756836	9424.780273
818.590820	9274.639648
817.425781	9227.500000
816.259766	9311.161133
815.092773	9268.319336
813.926758	9279.071289
812.759766	9129.130859
811.592773	9274.853516
810.424805	9257.753906
809.257813	9097.212891
808.089844	9225.716797
806.920898	9182.958008
805.752930	8941.237305
804.583984	9131.719727
803.415039	9012.019531
802.246094	9140.392578
801.076172	9072.045898
799.906250	9082.803711
798.736328	9010.226563
797.566406	8886.414063
796.395508	9038.158203
795.224609	9016.882813
794.053711	9083.138672
792.881836	9070.398438
791.710938	8970.179688
790.538086	9106.795898
789.366211	9066.331055
788.194336	9117.570313
787.021484	8870.336914
785.848633	8964.222656
784.674805	8955.786133
783.500977	8808.880859
782.327148	9156.165039
781.153320	8851.708008
779.979492	9051.929688
778.804688	8907.262695
777.629883	8952.042969
776.454102	8920.215820
775.279297	8888.402344
774.103516	9124.534180
772.927734	9120.324219
771.750977	8637.885742
770.575195	8952.534180
769.398438	8933.493164
768.220703	9024.908203
767.043945	8844.469727
765.866211	8874.293945
764.688477	8916.838867
763.510742	8844.772461
762.332031	8919.126953
761.153320	8794.064453
759.974609	9014.716797
758.794922	8860.005859
757.616211	8868.577148
756.436523	8949.195313
755.255859	8955.622070
754.076172	8864.609375
752.895508	8811.754883
751.714844	8883.840820
750.533203	8879.690430
749.352539	8797.240234
748.170898	8972.949219
746.988281	8698.023438
745.806641	8841.952148
744.624023	8795.526367
743.441406	8875.950195
742.258789	8878.142578
741.075195	8768.352539
739.891602	8751.556641
738.708008	8667.186523
737.523438	8908.011719
736.339844	8838.419922
735.155273	8823.730469
733.969727	8859.686523
732.785156	8817.574219
731.599609	8813.442383
730.414063	8899.977539
729.227539	8661.837891
728.041992	8879.034180
726.855469	8790.607422
725.667969	8843.360352
724.481445	8719.177734
723.293945	8790.872070
722.106445	8588.868164
720.918945	8761.580078
719.730469	8704.860352
718.541992	8616.610352
717.353516	8606.218750
716.164063	8627.371094
714.975586	8713.682617
713.786133	8566.660156
712.595703	8629.831055
711.406250	8646.753906
710.215820	8577.557617
709.025391	8722.572266
707.833984	8623.998047
706.642578	8743.748047
705.451172	8611.638672
704.259766	8779.585938
703.068359	8427.302734
701.875977	8517.628906
700.683594	8532.440430
699.490234	8666.713867
698.297852	8668.910156
697.104492	8654.345703
695.910156	8826.197266
694.716797	8700.618164
693.522461	8786.543945
692.328125	8627.542969
691.132813	8619.278320
689.938477	8826.501953
688.743164	8730.347656
687.547852	8456.491211
686.351563	8680.333008
685.155273	8784.930664
683.958984	8741.113281
682.762695	8718.208008
681.565430	8609.674805
680.368164	8847.836914
679.170898	8624.497070
677.973633	8783.228516
676.775391	8772.856445
675.577148	8568.462891
674.378906	8818.872070
673.179688	8597.876953
671.980469	8704.307617
670.781250	8808.603516
669.581055	8827.411133
668.381836	8737.871094
667.181641	8815.007813
665.980469	8779.654297
664.780273	8798.449219
663.579102	8846.375000
662.377930	8940.060547
661.175781	8796.520508
659.973633	9058.657227
658.771484	8800.778320
657.569336	8784.193359
656.367188	8792.558594
655.164063	8911.060547
653.960938	8975.487305
652.756836	8811.395508
651.552734	8823.897461
650.348633	8965.118164
649.144531	8761.701172
647.939453	8942.299805
646.735352	8960.981445
645.529297	9135.227539
644.324219	8948.545898
643.118164	8967.211914
641.912109	8793.091797
640.706055	8965.140625
639.499023	9043.872070
638.292969	8927.853516
637.084961	8882.299805
635.877930	8894.739258
634.669922	8859.563477
633.461914	8702.301758
632.253906	8936.159180
631.044922	8805.841797
629.836914	8681.789063
628.626953	8797.634766
627.417969	8630.229492
626.208008	8826.630859
624.998047	8704.751953
623.788086	8589.125000
622.577148	8680.072266
621.366211	8430.295898
620.155273	8725.597656
618.944336	8740.088867
617.732422	8589.508789
616.520508	8746.358398
615.308594	8589.658203
614.095703	8581.484375
612.882813	8855.723633
611.669922	8532.170898
610.457031	8672.366211
609.243164	8377.843750
608.029297	8620.982422
606.815430	8544.862305
605.600586	8561.410156
604.385742	8604.704102
603.170898	8654.150391
601.955078	8563.691406
600.740234	8446.537109
599.524414	8475.421875
598.307617	8469.347656
597.091797	8321.466797
595.875000	8444.876953
594.658203	8424.431641
593.440430	8383.458008
592.222656	8451.327148
591.004883	8379.573242
589.787109	8420.730469
588.568359	8252.578125
587.349609	8400.416992
586.130859	8250.803711
584.912109	8378.069336
583.692383	8390.476563
582.472656	8564.787109
581.251953	8331.263672
580.032227	8392.836914
578.811523	8337.641602
577.589844	8472.896484
576.369141	8493.449219
575.147461	8413.708008
573.925781	8460.865234
572.703125	8381.166992
571.481445	8485.574219
570.258789	8407.951172
569.035156	8455.063477
567.812500	8459.233398
566.588867	8489.963867
565.365234	8457.352539
564.140625	8530.958008
562.916992	8283.952148
561.692383	8565.787109
560.466797	8363.788086
559.242188	8476.113281
558.016602	8402.747070
556.791016	8323.295898
555.564453	8305.051758
554.337891	8356.127930
553.111328	8403.103516
551.884766	8311.498047
550.657227	8446.058594
549.429688	8507.236328
548.202148	8484.899414
546.974609	8635.611328
545.746094	8299.822266
544.517578	8387.427734
543.288086	8415.995117
542.058594	8391.669922
540.829102	8379.554688
539.599609	8501.617188
538.370117	8365.502930
537.139648	8552.534180
535.909180	8243.793945
534.677734	8414.516602
533.446289	8566.884766
532.214844	8406.549805
530.983398	8469.545898
529.750977	8465.550781
528.519531	8538.645508
527.286133	8234.462891
526.053711	8342.047852
524.820313	8411.064453
523.586914	8433.433594
522.353516	8571.291016
521.119141	8429.517578
519.884766	8662.502930
518.650391	8581.520508
517.415039	8458.062500
516.179688	8239.535156
514.944336	8280.115234
513.708984	8448.125977
