#Wave		#Intensity
1585.210938	8322.156250
1584.209961	8352.127930
1583.208984	8193.078125
1582.208008	8423.565430
1581.206055	8509.183594
1580.204102	8445.031250
1579.202148	8403.361328
1578.200195	8404.115234
1577.198242	8417.337891
1576.195313	8403.126953
1575.192383	8351.526367
1574.189453	8175.323242
1573.186523	8455.221680
1572.182617	8416.098633
1571.178711	8391.937500
1570.174805	8248.245117
1569.170898	8400.911133
1568.166992	8170.147949
1567.162109	8287.921875
1566.158203	8204.089844
1565.153320	8441.222656
1564.147461	8247.951172
1563.142578	8286.032227
1562.136719	8264.425781
1561.130859	8342.259766
1560.125000	8529.411133
1559.119141	8420.801758
1558.113281	8356.952148
1557.106445	8526.597656
1556.099609	8676.307617
1555.092773	8801.128906
1554.084961	8839.020508
1553.078125	8812.374023
1552.070313	8889.946289
1551.062500	8769.035156
1550.054688	8901.146484
1549.045898	8919.139648
1548.038086	8932.167969
1547.029297	8692.375000
1546.020508	8529.500977
1545.011719	8592.151367
1544.001953	8845.507813
1542.992188	8672.795898
1541.982422	8455.586914
1540.972656	8426.606445
1539.962891	8338.237305
1538.952148	8235.056641
1537.942383	8070.070313
1536.931641	8107.974609
1535.919922	8081.566895
1534.909180	8070.003906
1533.897461	8093.052246
1532.886719	8091.376465
1531.874023	7911.796875
1530.862305	8048.500000
1529.850586	8059.183105
1528.837891	8040.229004
1527.825195	7962.029785
1526.812500	7957.913086
1525.799805	7966.136719
1524.786133	8028.637207
1523.772461	8147.848145
1522.758789	8005.582520
1521.745117	8023.650879
1520.731445	8147.718262
1519.716797	8123.848145
1518.702148	8213.342773
1517.687500	8115.556641
1516.672852	8123.728516
1515.657227	8304.288086
1514.642578	8196.692383
1513.626953	8192.533203
1512.610352	8203.142578
1511.594727	8226.050781
1510.579102	8167.763184
1509.562500	8343.166992
1508.545898	8252.909180
1507.529297	8280.704102
1506.511719	8197.870117
1505.494141	8119.985840
1504.477539	8091.275391
1503.458984	8180.493652
1502.441406	8387.567383
1501.423828	8314.618164
1500.405273	8256.428711
1499.386719	8244.899414
1498.368164	8174.477539
1497.348633	8425.500000
1496.330078	8546.406250
1495.310547	8309.192383
1494.291016	8417.811523
1493.271484	8462.646484
1492.250977	8272.165039
1491.231445	8532.654297
1490.210938	8528.436523
1489.190430	8409.092773
1488.168945	8475.921875
1487.148438	8400.710938
1486.126953	8643.765625
1485.105469	8404.571289
1484.083984	8466.449219
1483.061523	8516.069336
1482.040039	8619.479492
1481.017578	8615.247070
1479.995117	8821.279297
1478.971680	8807.228516
1477.949219	8802.958008
1476.925781	8862.217773
1475.902344	9160.856445
1474.878906	8990.431641
1473.855469	9157.057617
1472.831055	9455.447266
1471.806641	9363.173828
1470.782227	9610.149414
1469.757813	9588.636719
1468.733398	9711.054688
1467.708008	9926.096680
1466.682617	10311.733398
1465.657227	10502.182617
1464.631836	10836.355469
1463.605469	10946.200195
1462.579102	11250.904297
1461.552734	11782.012695
1460.526367	12064.498047
1459.500000	12191.038086
1458.472656	12349.170898
1457.445313	12346.608398
1456.417969	12232.114258
1455.390625	12134.696289
1454.362305	11937.595703
1453.334961	11536.306641
1452.306641	11414.779297
1451.277344	11006.472656
1450.249023	10722.278320
1449.219727	10484.365234
1448.191406	10370.443359
1447.162109	10166.703125
1446.131836	10120.883789
1445.102539	9761.904297
1444.072266	9922.500977
1443.041992	9765.128906
1442.011719	9767.953125
1440.981445	9545.183594
1439.950195	9451.041992
1438.918945	9415.131836
1437.887695	9245.905273
1436.856445	9316.694336
1435.825195	9353.529297
1434.792969	9189.264648
1433.760742	9037.178711
1432.728516	8972.335938
1431.696289	8968.048828
1430.663086	8750.744141
1429.629883	8940.118164
1428.596680	8805.176758
1427.563477	8609.811523
1426.530273	8695.092773
1425.496094	8569.958008
1424.461914	8570.592773
1423.427734	8609.901367
1422.393555	8699.942383
1421.358398	8712.628906
1420.323242	8399.197266
1419.288086	8462.658203
1418.252930	8521.262695
1417.217773	8533.973633
1416.181641	8399.447266
1415.145508	8593.162109
1414.109375	8656.514648
1413.073242	8560.638672
1412.036133	8561.267578
1411.000000	8901.864258
1409.962891	8875.903320
1408.924805	9103.015625
1407.887695	9117.986328
1406.849609	9376.271484
1405.812500	9668.167969
1404.773438	9967.167969
1403.735352	10167.329102
1402.697266	10514.241211
1401.658203	10629.972656
1400.619141	10656.629883
1399.580078	10834.828125
1398.540039	10825.354492
1397.500977	11058.747070
1396.460938	10945.852539
1395.420898	10763.300781
1394.380859	10739.427734
1393.339844	10681.927734
1392.298828	10578.811523
1391.257813	10562.194336
1390.216797	10375.106445
1389.175781	10543.383789
1388.133789	10596.384766
1387.091797	10742.947266
1386.049805	10711.916016
1385.007813	11201.389648
1383.964844	11474.830078
1382.922852	11911.191406
1381.879883	12181.971680
1380.835938	12773.779297
1379.792969	13243.139648
1378.749023	13503.886719
1377.706055	13831.586914
1376.661133	14084.916992
1375.617188	14149.007813
1374.573242	14150.837891
1373.528320	14042.583984
1372.483398	13819.532227
1371.438477	13838.171875
1370.392578	13471.758789
1369.347656	13337.431641
1368.301758	13026.257813
1367.255859	12583.759766
1366.208984	12253.754883
1365.163086	12081.567383
1364.116211	11794.798828
1363.069336	11649.045898
1362.022461	11355.323242
1360.974609	11109.464844
1359.927734	10997.356445
1358.879883	11128.674805
1357.832031	11185.984375
1356.783203	11486.547852
1355.735352	11238.530273
1354.686523	11362.533203
1353.637695	11341.083984
1352.588867	11958.309570
1351.539063	12170.236328
1350.490234	12706.038086
1349.440430	12974.875977
1348.390625	13341.224609
1347.339844	13997.850586
1346.290039	14206.744141
1345.239258	14743.931641
1344.188477	15145.285156
1343.137695	15660.641602
1342.085938	16016.449219
1341.034180	16593.222656
1339.982422	16606.380859
1338.930664	17054.449219
1337.878906	17003.347656
1336.826172	17063.919922
1335.773438	17340.601563
1334.720703	17384.453125
1333.667969	17079.291016
1332.614258	16845.464844
1331.561523	16557.154297
1330.507813	16501.480469
1329.453125	16087.638672
1328.399414	15821.010742
1327.344727	15262.845703
1326.290039	14821.075195
1325.235352	14540.656250
1324.180664	14191.635742
1323.125000	13866.452148
1322.070313	13472.714844
1321.014648	13275.695313
1319.958008	13194.771484
1318.902344	12820.357422
1317.845703	12694.595703
1316.789063	12429.284180
1315.732422	12031.608398
1314.675781	12010.155273
1313.618164	11896.489258
1312.560547	11839.609375
1311.502930	11591.297852
1310.445313	11390.353516
1309.386719	11187.129883
1308.329102	11293.431641
1307.270508	11139.907227
1306.210938	10991.168945
1305.152344	10644.197266
1304.092773	10653.754883
1303.033203	10462.736328
1301.973633	10352.008789
1300.914063	10274.349609
1299.853516	10114.185547
1298.792969	9909.292969
1297.732422	9968.489258
1296.671875	9735.431641
1295.611328	9844.118164
1294.549805	9693.632813
1293.488281	9373.637695
1292.426758	9512.940430
1291.364258	9543.890625
1290.302734	9501.862305
1289.240234	9358.664063
1288.177734	9413.152344
1287.114258	9488.787109
1286.051758	9427.990234
1284.988281	9562.368164
1283.924805	9501.579102
1282.861328	9767.496094
1281.796875	9694.939453
1280.732422	9826.795898
1279.667969	9960.944336
1278.603516	10315.768555
1277.539063	10388.713867
1276.473633	10635.323242
1275.408203	10989.777344
1274.342773	11034.376953
1273.277344	11172.786133
1272.210938	11102.409180
1271.145508	11132.884766
1270.079102	10931.265625
1269.011719	10978.169922
1267.945313	10769.637695
1266.877930	10504.966797
1265.810547	10289.594727
1264.743164	10179.692383
1263.674805	10051.106445
1262.607422	9976.411133
1261.539063	9513.260742
1260.470703	9359.157227
1259.401367	9312.725586
1258.333008	9226.553711
1257.263672	9435.043945
1256.194336	9133.802734
1255.125000	9022.011719
1254.054688	8935.971680
1252.985352	8910.711914
1251.915039	8908.820313
1250.843750	8757.467773
1249.773438	8797.634766
1248.702148	8931.158203
1247.630859	8845.242188
1246.559570	8747.696289
1245.488281	8687.516602
1244.416016	8653.017578
1243.343750	8672.164063
1242.271484	8665.658203
1241.199219	8757.049805
1240.125977	8620.026367
1239.053711	8746.335938
1237.980469	8742.146484
1236.906250	9089.618164
1235.833008	9017.832031
1234.758789	8936.764648
1233.684570	8920.898438
1232.610352	8970.190430
1231.536133	8989.217773
1230.460938	9105.924805
1229.385742	8878.419922
1228.310547	9081.121094
1227.235352	8958.316406
1226.159180	8912.252930
1225.083008	9165.930664
1224.006836	9008.339844
1222.930664	8997.129883
1221.853516	8779.269531
1220.777344	8960.791992
1219.700195	8949.596680
1218.622070	9124.041992
1217.544922	8952.737305
1216.466797	8978.660156
1215.388672	8969.787109
1214.310547	8963.235352
1213.232422	8794.425781
1212.153320	9038.201172
1211.074219	8823.107422
1209.995117	9038.973633
1208.916016	9143.578125
1207.835938	9102.260742
1206.755859	8949.838867
1205.675781	9151.603516
1204.595703	8939.070313
1203.514648	9191.646484
1202.434570	9291.454102
1201.353516	9236.277344
1200.271484	9107.138672
1199.190430	9091.320313
1198.108398	9345.901367
1197.026367	9022.733398
1195.944336	9080.863281
1194.862305	9055.822266
1193.779297	8816.047852
1192.696289	8594.844727
1191.613281	8733.795898
1190.530273	8766.538086
1189.446289	8603.163086
1188.362305	8573.638672
1187.278320	8461.107422
1186.194336	8360.151367
1185.109375	8185.474609
1184.024414	8285.122070
1182.939453	8186.571289
1181.854492	8134.134277
1180.768555	8245.242188
1179.683594	8103.010742
1178.597656	8094.364746
1177.510742	7993.655273
1176.424805	7973.528809
1175.337891	8059.241211
1174.250977	8078.211426
1173.164063	7959.191895
1172.077148	8217.289063
1170.989258	8220.120117
1169.901367	7933.375977
1168.813477	8055.745605
1167.724609	7964.421875
1166.636719	8017.829590
1165.547852	7995.438477
1164.458984	7897.297363
1163.369141	8111.349609
1162.280273	7907.666504
1161.190430	7965.614258
1160.100586	8032.710938
1159.010742	8035.567383
1157.919922	7994.859375
1156.829102	8000.013672
1155.738281	8089.960449
1154.647461	7987.400391
1153.555664	8070.437500
1152.464844	8002.278809
1151.373047	8300.516602
1150.280273	8181.971680
1149.188477	8177.917480
1148.095703	8336.334961
1147.002930	8236.159180
1145.910156	8049.107910
1144.817383	8326.364258
1143.723633	8162.235840
1142.629883	8318.196289
1141.536133	8375.819336
1140.441406	8321.458008
1139.347656	8260.265625
1138.252930	8256.196289
1137.158203	8147.093262
1136.062500	8152.180664
1134.967773	8305.620117
1133.872070	8139.527344
1132.776367	8135.484863
1131.679688	8031.083984
1130.583984	8134.245117
1129.487305	8362.756836
1128.390625	8356.387695
1127.292969	8106.173828
1126.196289	8218.340820
1125.098633	8050.270508
1124.000977	8180.618652
1122.903320	8140.137695
1121.804688	8129.267578
1120.706055	7938.599609
1119.607422	8253.170898
1118.508789	8094.406738
1117.409180	7940.260254
1116.310547	8002.209961
1115.210938	8059.584961
1114.110352	8032.833008
1113.010742	8146.988281
1111.910156	7992.993652
1110.809570	8048.046875
1109.708984	8114.430176
1108.607422	7933.294434
1107.506836	8144.956543
1106.405273	8016.091309
1105.303711	7991.658691
1104.201172	7881.029785
1103.098633	7979.112305
1101.996094	7807.308105
1100.893555	7773.871094
1099.791016	7679.249512
1098.687500	7795.416504
1097.583984	7694.032715
1096.480469	7785.228516
1095.376953	7692.948730
1094.272461	7587.123535
1093.167969	7730.344727
1092.063477	7604.187500
1090.958008	7659.097656
1089.853516	7546.583008
1088.748047	7793.722168
1087.642578	7568.166992
1086.536133	7697.636719
1085.430664	7786.366211
1084.324219	7798.226563
1083.217773	7710.675781
1082.110352	7808.376953
1081.003906	7729.893555
1079.896484	7865.928223
1078.789063	7688.146484
1077.680664	7611.995605
1076.573242	7698.327148
1075.464844	7716.947754
1074.356445	7676.922852
1073.247070	7864.646484
1072.138672	7709.636719
1071.029297	7712.459473
1069.919922	7708.520020
1068.809570	7783.429688
1067.700195	7678.121582
1066.589844	7825.062012
1065.479492	7760.312988
1064.368164	7790.126953
1063.257813	7666.903809
1062.146484	7676.474609
1061.035156	7632.056641
1059.922852	7751.823730
1058.811523	7781.603516
1057.699219	7689.983887
1056.586914	7692.793945
1055.473633	7720.317383
1054.361328	7693.915039
1053.248047	7651.802246
1052.134766	7616.443359
1051.021484	7899.878418
1049.907227	7743.279785
1048.792969	7743.825195
1047.678711	7719.691895
1046.564453	7738.184082
1045.449219	7740.970703
1044.333984	7864.821289
1043.218750	7851.887207
1042.103516	7899.464355
1040.987305	7819.312012
1039.871094	7965.434082
1038.754883	8008.473633
1037.638672	8004.474609
1036.521484	8025.100586
1035.404297	8063.620605
1034.287109	8037.234375
1033.169922	8048.889160
1032.051758	8047.118652
1030.933594	8078.888672
1029.815430	8238.072266
1028.697266	8120.034668
1027.578125	8223.272461
1026.458984	8107.523438
1025.339844	8094.569824
1024.220703	8204.442383
1023.100586	8280.776367
1021.980469	8403.951172
1020.860352	8350.771484
1019.740234	8302.076172
1018.619141	8460.852539
1017.498047	8432.225586
1016.376953	8486.107422
1015.255859	8337.109375
1014.133789	8531.394531
1013.011719	8451.525391
1011.889648	8518.718750
1010.767578	8514.610352
1009.644531	8479.330078
1008.521484	8570.958984
1007.398438	8319.784180
1006.274414	8435.883789
1005.151367	8342.804688
1004.027344	8423.258789
1002.902344	8423.621094
1001.778320	8248.342773
1000.653320	8248.742188
999.528320	8231.362305
998.403320	8156.221680
997.278320	8549.809570
996.152344	8365.811523
995.026367	8246.282227
993.900391	8162.323242
992.773438	8180.490234
991.646484	7981.201172
990.519531	8079.259766
989.392578	8081.905762
988.265625	8171.027344
987.137695	8087.192383
986.009766	8218.382813
984.881836	8154.516113
983.752930	8247.970703
982.624023	8299.299805
981.495117	8257.599609
980.366211	8138.428711
979.236328	8320.338867
978.106445	8159.159668
976.976563	8250.272461
975.846680	8299.316406
974.715820	8215.648438
973.585938	8169.604004
972.454102	8289.367188
971.323242	8150.504883
970.191406	8290.102539
969.060547	8049.686035
967.927734	8237.830078
966.795898	8242.623047
965.663086	8346.752930
964.530273	8395.659180
963.397461	8501.913086
962.264648	8559.585938
961.130859	8568.708984
959.997070	8641.775391
958.863281	8617.805664
957.729492	8756.950195
956.594727	8658.041016
955.459961	8812.535156
954.325195	8570.484375
953.189453	8317.529297
952.053711	8322.281250
950.917969	8243.384766
949.782227	8030.282227
948.646484	8017.490723
947.509766	8141.085938
946.373047	8165.660645
945.235352	7820.838867
944.098633	7893.833984
942.960938	7986.575195
941.823242	7960.622559
940.685547	7864.385254
939.546875	7873.610840
938.408203	7871.852539
937.269531	7920.585938
936.129883	7993.439453
934.991211	8000.430664
933.851563	8035.937988
932.711914	7924.475586
931.571289	7995.067383
930.431641	8091.935547
929.291016	8055.056152
928.149414	7967.791504
927.008789	8075.552734
925.867188	7999.272949
924.725586	8019.381836
923.583984	7969.420410
922.441406	8050.814941
921.299805	8016.186035
920.157227	7953.128906
919.013672	7850.725586
917.871094	7964.875000
916.727539	7718.207031
915.583984	7559.087891
914.439453	7653.554688
913.295898	7595.029297
912.151367	7599.879883
911.006836	7550.127441
909.861328	7679.445313
908.716797	7518.361816
907.571289	7538.500488
906.424805	7408.067871
905.279297	7563.477539
904.132813	7500.709961
902.986328	7400.899414
901.839844	7556.204590
900.692383	7471.682617
899.545898	7644.333496
898.398438	7653.509277
897.250000	7767.230957
896.102539	7737.175781
894.954102	7648.350586
893.805664	7546.504395
892.656250	7708.020996
891.507813	7580.097656
890.358398	7728.481445
889.208984	7633.230469
888.058594	7688.042969
886.908203	7558.062500
885.758789	7734.567383
884.607422	7502.514648
883.457031	7516.031250
882.305664	7473.075195
881.154297	7532.187988
880.002930	7450.171875
878.850586	7561.349609
877.698242	7607.381836
876.545898	7471.168945
875.393555	7569.251465
874.240234	7443.949219
873.086914	7431.431641
871.933594	7421.085938
870.780273	7267.730469
869.625977	7580.218262
868.471680	7489.706055
867.317383	7449.038086
866.162109	7527.459473
865.007813	7363.427246
863.852539	7469.962402
862.696289	7308.179199
861.541016	7196.217285
860.384766	7467.064941
859.228516	7493.484375
858.072266	7340.485352
856.915039	7410.140137
855.757813	7339.328613
854.600586	7406.791016
853.442383	7389.999512
852.285156	7362.419434
851.126953	7529.123535
849.968750	7469.152344
848.809570	7452.359375
847.650391	7442.044434
846.491211	7345.468750
845.332031	7311.464355
844.171875	7400.346680
843.012695	7372.809082
841.851563	7433.625000
840.691406	7408.245605
839.530273	7413.028809
838.369141	7329.527344
837.208008	7469.946289
836.046875	7390.772949
834.884766	7421.374023
833.722656	7294.918945
832.560547	7349.185059
831.397461	7242.154785
830.234375	7403.896484
829.071289	7320.543457
827.908203	7293.097168
826.744141	7315.073730
825.580078	7489.537109
824.416016	7326.785645
823.251953	7376.647461
822.086914	7304.142090
820.921875	7426.945801
819.756836	7268.644043
818.590820	7318.471680
817.425781	7385.430664
816.259766	7229.388672
815.092773	7429.231445
813.926758	7294.678711
812.759766	7425.854980
811.592773	7417.740723
810.424805	7298.270996
809.257813	7260.213867
808.089844	7264.984375
806.920898	7239.791504
805.752930	7381.495117
804.583984	7178.742676
803.415039	7222.019531
802.246094	7220.375977
801.076172	7372.640625
799.906250	7338.905273
798.736328	7080.837402
797.566406	7356.925293
796.395508	7201.481445
795.224609	7415.494629
794.053711	7550.425781
792.881836	7574.315918
791.710938	7647.270508
790.538086	7611.395996
789.366211	7673.643555
788.194336	7548.222656
787.021484	7706.385254
785.848633	7459.528809
784.674805	7696.478027
783.500977	7534.948730
782.327148	7528.969727
781.153320	7408.008301
779.979492	7570.240723
778.804688	7334.391113
777.629883	7364.635742
776.454102	7431.031250
775.279297	7388.923340
774.103516	7212.868652
772.927734	7315.392578
771.750977	7413.618652
770.575195	7386.425293
769.398438	7408.107422
768.220703	7429.778809
767.043945	7364.375000
765.866211	7468.843750
764.688477	7358.886230
763.510742	7512.114746
762.332031	7510.397461
761.153320	7419.593750
759.974609	7704.179688
758.794922	7736.339355
757.616211	7711.253418
756.436523	7872.664063
755.255859	7868.744141
754.076172	7898.716309
752.895508	7992.205078
751.714844	8111.056641
750.533203	8240.437500
749.352539	8520.011719
748.170898	8968.717773
746.988281	9237.418945
745.806641	9795.723633
744.624023	10501.773438
743.441406	11475.954102
742.258789	12994.929688
741.075195	14975.923828
739.891602	17490.439453
738.708008	20261.451172
737.523438	23527.369141
736.339844	26175.400391
735.155273	27952.716797
733.969727	28543.423828
732.785156	28441.951172
731.599609	26752.457031
730.414063	24578.783203
729.227539	21191.884766
728.041992	18238.585938
726.855469	15777.581055
725.667969	13587.344727
724.481445	12006.771484
723.293945	10753.289063
722.106445	9900.354492
720.918945	9260.377930
719.730469	8826.900391
718.541992	8519.841797
717.353516	8252.883789
716.164063	7908.248535
714.975586	7837.058594
713.786133	7711.255371
712.595703	7568.699707
711.406250	7457.720703
710.215820	7481.209961
709.025391	7527.785645
707.833984	7356.010254
706.642578	7438.271973
705.451172	7470.135254
704.259766	7386.600586
703.068359	7498.160645
701.875977	7435.625488
700.683594	7178.151367
699.490234	7377.709961
698.297852	7300.576172
697.104492	7382.695313
695.910156	7571.595215
694.716797	7724.809082
693.522461	7668.599121
692.328125	7679.392090
691.132813	7907.806152
689.938477	7920.629883
688.743164	8161.431641
687.547852	7965.078125
686.351563	8034.325195
685.155273	7875.712402
683.958984	7773.593750
682.762695	7746.732422
681.565430	7730.326660
680.368164	7584.457031
679.170898	7472.058594
677.973633	7482.859863
676.775391	7612.602539
675.577148	7579.553223
674.378906	7406.768066
673.179688	7450.937500
671.980469	7434.625488
670.781250	7566.311523
669.581055	7518.720703
668.381836	7648.241699
667.181641	7556.911133
665.980469	7598.899414
664.780273	7547.178711
663.579102	7572.496582
662.377930	7624.855957
661.175781	7826.988770
659.973633	7881.344238
658.771484	8058.368652
657.569336	7900.576172
656.367188	8083.749023
655.164063	8339.572266
653.960938	8239.996094
652.756836	8283.791992
651.552734	8200.887695
650.348633	8404.539063
649.144531	8464.870117
647.939453	8533.473633
646.735352	8529.426758
645.529297	8502.565430
644.324219	8527.560547
643.118164	8844.884766
641.912109	8681.157227
640.706055	8556.879883
639.499023	8718.583008
638.292969	8720.710938
637.084961	8758.042969
635.877930	8903.021484
634.669922	9076.912109
633.461914	9292.112305
632.253906	9306.516602
631.044922	9565.001953
629.836914	9434.569336
628.626953	9682.566406
627.417969	9531.494141
626.208008	9337.091797
624.998047	9248.153320
623.788086	9053.904297
622.577148	8812.246094
621.366211	8508.755859
620.155273	8374.674805
618.944336	8339.716797
617.732422	8088.127441
616.520508	7937.732422
615.308594	7830.715820
614.095703	7711.376953
612.882813	7641.565918
611.669922	7569.725586
610.457031	7681.297363
609.243164	7452.923340
608.029297	7531.517578
606.815430	7255.926270
605.600586	7373.640137
604.385742	7359.584473
603.170898	7357.879883
601.955078	7189.550781
600.740234	7305.112793
599.524414	7278.747070
598.307617	7262.670898
597.091797	7205.498535
595.875000	7263.415527
594.658203	7354.173340
593.440430	7329.877930
592.222656	7172.129883
591.004883	7320.323242
589.787109	7257.056641
588.568359	7181.507813
587.349609	7155.226563
586.130859	7295.081055
584.912109	7350.802246
583.692383	7234.300293
582.472656	7341.246094
581.251953	7286.270020
580.032227	7374.716309
578.811523	7479.505371
577.589844	7571.959961
576.369141	7688.936523
575.147461	7670.780273
573.925781	7605.570801
572.703125	7659.040527
571.481445	7806.564453
570.258789	7722.964355
569.035156	7747.748535
567.812500	7707.119629
566.588867	7801.367676
565.365234	7954.813965
564.140625	7795.706543
562.916992	7934.788574
561.692383	7879.871094
560.466797	7998.458496
559.242188	7919.064941
558.016602	7874.387695
556.791016	7874.600586
555.564453	7858.500000
554.337891	7791.441895
553.111328	7683.652832
551.884766	7771.525391
550.657227	7871.580078
549.429688	7786.249023
548.202148	7959.556641
546.974609	7774.492676
545.746094	7803.217285
544.517578	7864.484863
543.288086	7852.487793
542.058594	7635.077148
540.829102	7812.242188
539.599609	7767.737793
538.370117	7800.486328
537.139648	7812.899414
535.909180	7766.393066
534.677734	7591.953613
533.446289	7636.893555
532.214844	7637.150879
530.983398	7562.312012
529.750977	7489.536621
528.519531	7349.848633
527.286133	7356.255371
526.053711	7421.461914
524.820313	7419.739258
523.586914	7610.560547
522.353516	7622.977539
521.119141	7615.130371
519.884766	7546.524902
518.650391	7386.830566
517.415039	7360.822266
516.179688	7514.958008
514.944336	7499.048828
513.708984	7369.857422
