#Wave		#Intensity
2109.224609	13380.596680
2107.712891	13456.679688
2106.201172	13328.094727
2104.687500	13300.414063
2103.175781	13247.952148
2101.662109	13423.563477
2100.150391	13513.185547
2098.636719	13275.708008
2097.123047	13175.405273
2095.607422	13203.931641
2094.093750	13267.112305
2092.578125	13454.045898
2091.064453	13390.091797
2089.548828	13426.796875
2088.033203	13354.629883
2086.517578	13379.784180
2085.000000	13312.604492
2083.484375	13283.364258
2081.966797	13247.544922
2080.449219	13175.495117
2078.931641	13317.612305
2077.414063	13318.039063
2075.894531	13471.589844
2074.376953	13257.986328
2072.857422	13297.924805
2071.337891	13199.630859
2069.818359	13137.570313
2068.298828	13129.812500
2066.777344	13130.280273
2065.257813	13235.963867
2063.736328	13118.064453
2062.214844	13307.514648
2060.693359	13345.731445
2059.171875	13352.722656
2057.648438	13221.761719
2056.126953	13310.871094
2054.603516	13178.333008
2053.080078	13170.583984
2051.556641	13351.534180
2050.033203	13268.288086
2048.507813	13263.803711
2046.984375	13238.004883
2045.458984	13464.689453
2043.933594	13471.639648
2042.408203	13411.399414
2040.882813	13369.206055
2039.355469	13407.294922
2037.830078	13460.106445
2036.302734	13357.349609
2034.775391	13382.320313
2033.248047	13454.743164
2031.718750	13455.137695
2030.191406	13534.057617
2028.662109	13580.231445
2027.134766	13652.549805
2025.605469	13335.734375
2024.076172	13437.495117
2022.544922	13462.406250
2021.015625	13493.840820
2019.484375	13386.416992
2017.955078	13352.529297
2016.423828	13439.481445
2014.892578	13492.116211
2013.359375	13389.679688
2011.828125	13530.416016
2010.294922	13501.427734
2008.761719	13516.489258
2007.230469	13526.652344
2005.695313	13303.670898
2004.162109	13476.875000
2002.628906	13386.000977
2001.093750	13371.743164
1999.558594	13536.677734
1998.023438	13559.851563
1996.488281	13566.732422
1994.953125	13249.654297
1993.417969	13377.039063
1991.880859	13546.676758
1990.343750	13494.986328
1988.806641	13355.485352
1987.269531	13320.119141
1985.732422	13575.793945
1984.193359	13452.619141
1982.656250	13175.106445
1981.117188	13284.416016
1979.578125	13291.336914
1978.039063	13329.114258
1976.500000	13212.616211
1974.958984	13381.890625
1973.417969	13200.507813
1971.878906	13118.188477
1970.337891	13334.422852
1968.796875	13263.463867
1967.253906	13187.669922
1965.712891	13243.237305
1964.169922	13378.210938
1962.626953	13328.371094
1961.083984	13160.267578
1959.541016	13186.633789
1957.998047	13161.159180
1956.455078	13164.842773
1954.910156	13165.287109
1953.365234	13275.795898
1951.820313	13135.426758
1950.275391	13168.234375
1948.730469	13542.335938
1947.183594	13206.313477
1945.638672	13205.128906
1944.091797	13359.133789
1942.544922	13380.543945
1940.998047	13309.841797
1939.449219	13189.086914
1937.902344	13228.286133
1936.353516	13357.898438
1934.804688	13271.114258
1933.255859	13365.150391
1931.707031	13284.855469
1930.158203	13304.629883
1928.607422	13345.365234
1927.058594	13068.365234
1925.507813	13226.841797
1923.957031	13225.652344
1922.406250	13332.451172
1920.853516	13242.611328
1919.302734	13217.251953
1917.750000	13222.507813
1916.197266	13182.668945
1914.644531	13429.436523
1913.091797	13548.931641
1911.539063	13106.706055
1909.984375	13300.234375
1908.431641	13274.898438
1906.876953	13516.557617
1905.322266	13338.424805
1903.767578	13390.263672
1902.210938	13220.268555
1900.656250	13368.529297
1899.099609	13368.915039
1897.542969	13407.850586
1895.986328	13541.522461
1894.429688	13329.926758
1892.873047	13502.083984
1891.314453	13550.587891
1889.755859	13263.706055
1888.199219	13438.975586
1886.640625	13442.550781
1885.080078	13561.581055
1883.521484	13465.725586
1881.960938	13568.671875
1880.402344	13492.084961
1878.841797	13471.608398
1877.281250	13691.424805
1875.720703	13627.672852
1874.158203	13493.492188
1872.597656	13655.531250
1871.035156	13612.631836
1869.472656	13638.559570
1867.910156	13674.074219
1866.347656	13575.213867
1864.783203	13745.057617
1863.220703	13510.320313
1861.656250	13681.704102
1860.091797	13520.593750
1858.527344	13741.435547
1856.962891	13727.350586
1855.396484	13865.000977
1853.832031	13889.218750
1852.265625	13729.828125
1850.699219	13932.832031
1849.132813	13760.732422
1847.566406	14137.550781
1845.998047	13892.102539
1844.431641	13807.833984
1842.863281	13926.097656
1841.294922	13913.591797
1839.726563	13897.902344
1838.156250	14004.916016
1836.587891	13850.612305
1835.017578	13795.125000
1833.449219	13765.140625
1831.878906	13792.483398
1830.306641	13703.615234
1828.736328	13847.133789
1827.166016	13704.192383
1825.593750	13971.729492
1824.021484	13930.608398
1822.449219	13778.198242
1820.876953	13764.160156
1819.304688	13872.513672
1817.730469	13726.565430
1816.158203	13947.681641
1814.583984	13998.743164
1813.009766	13930.675781
1811.435547	13980.129883
1809.859375	14066.072266
1808.285156	13859.956055
1806.708984	13904.631836
1805.132813	14147.588867
1803.556641	13914.620117
1801.980469	13922.782227
1800.404297	13999.112305
1798.826172	13916.902344
1797.248047	14159.597656
1795.671875	13844.480469
1794.093750	14216.979492
1792.513672	13947.911133
1790.935547	14070.053711
1789.355469	14062.332031
1787.777344	14011.880859
1786.197266	14228.874023
1784.617188	14311.299805
1783.035156	14108.979492
1781.455078	14047.488281
1779.873047	14250.057617
1778.292969	14322.922852
1776.710938	14157.117188
1775.128906	14375.333984
1773.544922	14418.108398
1771.962891	14369.260742
1770.378906	14315.695313
1768.794922	14350.559570
1767.212891	14423.290039
1765.626953	14483.364258
1764.042969	14628.610352
1762.458984	14611.322266
1760.873047	14557.768555
1759.287109	14688.713867
1757.701172	14512.207031
1756.115234	14635.223633
1754.529297	14770.793945
1752.941406	14710.958008
1751.355469	14900.004883
1749.767578	14794.499023
1748.179688	15057.442383
1746.591797	15121.944336
1745.001953	15252.513672
1743.414063	15167.472656
1741.824219	15069.881836
1740.234375	15192.513672
1738.644531	15481.765625
1737.054688	15373.163086
1735.462891	15428.066406
1733.873047	15473.516602
1732.281250	15900.713867
1730.689453	15862.794922
1729.097656	15719.673828
1727.505859	15865.504883
1725.912109	16107.026367
1724.320313	15979.635742
1722.726563	16360.676758
1721.132813	16459.181641
1719.539063	16234.553711
1717.945313	16411.447266
1716.349609	16520.849609
1714.755859	16522.056641
1713.160156	16913.460938
1711.564453	17209.128906
1709.968750	17368.392578
1708.371094	17892.486328
1706.775391	17786.923828
1705.177734	18044.582031
1703.580078	18386.644531
1701.982422	18448.468750
1700.384766	18712.078125
1698.787109	18980.267578
1697.187500	19609.570313
1695.587891	20113.529297
1693.990234	20565.693359
1692.390625	21114.554688
1690.789063	22100.666016
1689.189453	22716.136719
1687.587891	22717.568359
1685.988281	23512.212891
1684.386719	23883.457031
1682.785156	24071.929688
1681.181641	24517.794922
1679.580078	24623.365234
1677.976563	24465.283203
1676.373047	24180.951172
1674.769531	24317.703125
1673.166016	24097.431641
1671.562500	23864.783203
1669.957031	24012.416016
1668.353516	23681.740234
1666.748047	23497.605469
1665.142578	23383.617188
1663.537109	23110.882813
1661.929688	23014.144531
1660.324219	22903.439453
1658.716797	23086.830078
1657.109375	23120.816406
1655.501953	23361.621094
1653.894531	23610.095703
1652.285156	23874.009766
1650.677734	24053.884766
1649.068359	23941.558594
1647.458984	24408.738281
1645.849609	24841.546875
1644.240234	24957.388672
1642.628906	25000.212891
1641.019531	25491.597656
1639.408203	25951.736328
1637.796875	26209.978516
1636.185547	26558.078125
1634.572266	27000.630859
1632.960938	27385.623047
1631.347656	27896.015625
1629.734375	28378.292969
1628.121094	29140.830078
1626.507813	29986.701172
1624.894531	30892.613281
1623.279297	31364.542969
1621.664063	32528.328125
1620.048828	33891.292969
1618.433594	35030.828125
1616.818359	36125.003906
1615.203125	37752.394531
1613.585938	39168.753906
1611.968750	40185.574219
1610.351563	41518.875000
1608.734375	42811.417969
1607.117188	43378.675781
1605.498047	43758.753906
1603.878906	43812.750000
1602.261719	43919.230469
1600.640625	43692.167969
1599.021484	43497.613281
1597.402344	43196.652344
1595.781250	43036.226563
1594.162109	42641.386719
1592.541016	42598.355469
1590.919922	42413.480469
1589.296875	42216.343750
1587.675781	41552.273438
1586.052734	41620.449219
1584.429688	41052.304688
1582.806641	41005.027344
1581.183594	40474.210938
1579.560547	40704.210938
1577.935547	40889.468750
1576.312500	40846.871094
1574.687500	40924.308594
1573.062500	41297.070313
1571.435547	41895.757813
1569.810547	41903.714844
1568.183594	41668.761719
1566.558594	41593.753906
1564.931641	41351.277344
1563.304688	41313.238281
1561.675781	40964.929688
1560.048828	40996.089844
1558.419922	40855.269531
1556.791016	40564.070313
1555.162109	40260.714844
1553.533203	39939.070313
1551.904297	39576.144531
1550.273438	38632.078125
1548.642578	38197.507813
1547.011719	37793.785156
1545.380859	36950.328125
1543.750000	36416.781250
1542.119141	35906.441406
1540.486328	35785.390625
1538.853516	35831.316406
1537.220703	35419.414063
1535.587891	35453.144531
1533.955078	35863.351563
1532.320313	36336.117188
1530.685547	36670.996094
1529.052734	36707.476563
1527.416016	36702.652344
1525.781250	37219.156250
1524.146484	37039.968750
1522.509766	37458.367188
1520.873047	37189.058594
1519.236328	37523.226563
1517.599609	37895.429688
1515.962891	38214.027344
1514.324219	38791.996094
1512.687500	39621.535156
1511.048828	40720.789063
1509.410156	41368.007813
1507.771484	42423.703125
1506.130859	42862.886719
1504.492188	42801.828125
1502.851563	42480.144531
1501.210938	41829.437500
1499.570313	41369.453125
1497.927734	40612.628906
1496.287109	40066.292969
1494.644531	39515.617188
1493.001953	38287.773438
1491.359375	37058.933594
1489.716797	36595.984375
1488.074219	35742.265625
1486.429688	35191.582031
1484.785156	35634.089844
1483.140625	35103.421875
1481.496094	34997.050781
1479.851563	34922.632813
1478.207031	34573.250000
1476.560547	34047.812500
1474.914063	34110.316406
1473.267578	33806.875000
1471.621094	33612.859375
1469.972656	33092.625000
1468.326172	32571.097656
1466.677734	31954.218750
1465.029297	31801.708984
1463.380859	31333.861328
1461.732422	31116.355469
1460.082031	30730.701172
1458.431641	30567.968750
1456.783203	30512.871094
1455.132813	30575.941406
1453.480469	30364.880859
1451.830078	30090.316406
1450.177734	30067.148438
1448.527344	29863.892578
1446.875000	30073.791016
1445.220703	30088.451172
1443.568359	30264.931641
1441.916016	31132.355469
1440.261719	31102.927734
1438.607422	31003.984375
1436.953125	31168.011719
1435.298828	31289.664063
1433.642578	30992.869141
1431.988281	30711.298828
1430.332031	30230.556641
1428.675781	30150.027344
1427.019531	29708.847656
1425.361328	29349.332031
1423.705078	29691.412109
1422.046875	29580.896484
1420.388672	29883.570313
1418.730469	29806.220703
1417.072266	30493.037109
1415.412109	31107.222656
1413.753906	31406.275391
1412.093750	31464.207031
1410.433594	31217.927734
1408.773438	31162.955078
1407.111328	31210.355469
1405.451172	31311.910156
1403.789063	31326.152344
1402.126953	31617.162109
1400.464844	32077.982422
1398.802734	31953.710938
1397.138672	31731.783203
1395.474609	31573.068359
1393.812500	30840.437500
1392.146484	30817.183594
1390.482422	30534.105469
1388.818359	30410.316406
1387.152344	30363.144531
1385.486328	30646.195313
1383.820313	30609.490234
1382.154297	30619.306641
1380.488281	30530.119141
1378.820313	30784.382813
1377.154297	30890.101563
1375.486328	31186.140625
1373.818359	31633.410156
1372.148438	32161.390625
1370.480469	32095.933594
1368.810547	32783.824219
1367.140625	33248.312500
1365.470703	33508.996094
1363.800781	33516.625000
1362.130859	33663.410156
1360.458984	33923.824219
1358.787109	34348.644531
1357.115234	34215.507813
1355.443359	34255.847656
1353.771484	33829.820313
1352.097656	34158.636719
1350.423828	34916.101563
1348.751953	35171.335938
1347.076172	35826.687500
1345.402344	37032.691406
1343.728516	38445.656250
1342.052734	40474.363281
1340.376953	42467.859375
1338.701172	44482.851563
1337.025391	47305.308594
1335.347656	49278.082031
1333.671875	50737.156250
1331.994141	51428.003906
1330.316406	51914.394531
1328.638672	51479.871094
1326.960938	50489.964844
1325.281250	49131.179688
1323.601563	48509.953125
1321.921875	48081.007813
1320.242188	47774.273438
1318.562500	47138.863281
1316.880859	46814.613281
1315.201172	45648.765625
1313.519531	44556.277344
1311.837891	44091.582031
1310.154297	43038.550781
1308.472656	42101.878906
1306.789063	40874.453125
1305.105469	39216.855469
1303.421875	37441.195313
1301.738281	36433.824219
1300.054688	35383.855469
1298.369141	34325.441406
1296.683594	33629.484375
1294.998047	32994.640625
1293.312500	32331.902344
1291.626953	31831.054688
1289.939453	30899.087891
1288.253906	29929.000000
1286.566406	29538.644531
1284.878906	28893.679688
1283.189453	28543.705078
1281.501953	28643.990234
1279.812500	28303.101563
1278.123047	28443.349609
1276.433594	28684.146484
1274.744141	29118.623047
1273.052734	30162.242188
1271.363281	31098.931641
1269.671875	32035.203125
1267.980469	32490.708984
1266.289063	32569.205078
1264.595703	32542.773438
1262.904297	32473.515625
1261.210938	31471.023438
1259.517578	31049.179688
1257.824219	30265.892578
1256.128906	29733.820313
1254.435547	28837.566406
1252.740234	28292.765625
1251.044922	27434.091797
1249.349609	26799.902344
1247.652344	26248.539063
1245.957031	25930.269531
1244.259766	25422.068359
1242.562500	25008.369141
1240.865234	25001.328125
1239.167969	24755.755859
1237.468750	24844.457031
1235.769531	24749.144531
1234.072266	24803.957031
1232.371094	24873.455078
1230.671875	25070.876953
1228.972656	25663.757813
1227.271484	26623.904297
1225.570313	27832.013672
1223.869141	28994.027344
1222.167969	30343.568359
1220.464844	30925.787109
1218.763672	31391.732422
1217.060547	31365.632813
1215.357422	30388.392578
1213.654297	29602.361328
1211.949219	28505.636719
1210.246094	27946.263672
1208.541016	27303.546875
1206.835938	26933.826172
1205.130859	26574.527344
1203.423828	26133.318359
1201.718750	26257.871094
1200.011719	25957.552734
1198.304688	25844.826172
1196.597656	25844.894531
1194.888672	25214.023438
1193.181641	24757.595703
1191.472656	24481.347656
1189.763672	24028.208984
1188.054688	24174.927734
1186.343750	24261.626953
1184.634766	24055.900391
1182.923828	23766.951172
1181.212891	23681.246094
1179.501953	23354.523438
1177.791016	23225.126953
1176.078125	23520.726563
1174.365234	23941.748047
1172.652344	23853.167969
1170.939453	23437.744141
1169.226563	23359.525391
1167.511719	23281.339844
1165.798828	23060.271484
1164.083984	22710.998047
1162.369141	22367.710938
1160.652344	22061.009766
1158.937500	21371.251953
1157.220703	21028.490234
1155.503906	20684.425781
1153.787109	20452.626953
1152.070313	20082.638672
1150.351563	20242.566406
1148.632813	20287.474609
1146.916016	20461.826172
1145.195313	20092.162109
1143.476563	19508.917969
1141.757813	19042.232422
1140.037109	19035.027344
1138.316406	18805.503906
1136.595703	18590.611328
1134.875000	18496.361328
1133.152344	18291.794922
1131.429688	17762.128906
1129.708984	17419.931641
1127.984375	17092.398438
1126.261719	16944.908203
1124.539063	17046.955078
1122.814453	17035.847656
1121.089844	17242.208984
1119.365234	17723.871094
1117.640625	18037.214844
1115.914063	18734.343750
1114.187500	19012.550781
1112.462891	19200.843750
1110.734375	19515.009766
1109.007813	19252.933594
1107.281250	18970.714844
1105.552734	18477.384766
1103.824219	17791.892578
1102.095703	17245.542969
1100.367188	16773.175781
1098.636719	16295.241211
1096.908203	16155.693359
1095.177734	16472.781250
1093.447266	16672.716797
1091.714844	16768.578125
1089.984375	17322.099609
1088.251953	17764.214844
1086.519531	18302.822266
1084.787109	18608.878906
1083.054688	18943.646484
1081.320313	18894.626953
1079.585938	18485.152344
1077.851563	18501.125000
1076.117188	17792.144531
1074.382813	17471.089844
1072.648438	16918.246094
1070.912109	16490.955078
1069.175781	16099.854492
1067.439453	16372.586914
1065.701172	16003.278320
1063.964844	16173.740234
1062.226563	15974.398438
1060.488281	15920.413086
1058.750000	15957.041992
1057.011719	15930.396484
1055.271484	15498.442383
1053.531250	15279.355469
1051.791016	14863.546875
1050.050781	14400.528320
1048.310547	14166.042969
1046.568359	13970.424805
1044.826172	13895.463867
1043.083984	13560.799805
1041.341797	13698.294922
1039.599609	13492.917969
1037.855469	13495.565430
1036.113281	13458.067383
1034.369141	13242.847656
1032.623047	13440.439453
1030.878906	13199.531250
1029.132813	13401.335938
1027.386719	13214.961914
1025.640625	13171.844727
1023.894531	13244.688477
1022.148438	13182.976563
1020.400391	13224.305664
1018.652344	13146.889648
1016.904297	13232.537109
1015.156250	13235.218750
1013.406250	12940.577148
1011.658203	13051.933594
1009.908203	13051.792969
1008.158203	12980.228516
1006.408203	12892.987305
1004.656250	13044.223633
1002.904297	13006.965820
1001.152344	13108.155273
999.400391	12963.886719
997.648438	12963.757813
995.896484	12828.142578
994.142578	12789.544922
992.388672	12783.750000
990.634766	12867.740234
988.878906	12866.201172
987.125000	12891.727539
985.369141	12655.192383
983.613281	12667.938477
981.857422	12628.006836
980.099609	12441.503906
978.343750	12630.720703
976.585938	12495.511719
974.828125	12671.826172
973.070313	12666.057617
971.310547	12663.134766
969.552734	12688.634766
967.792969	12829.214844
966.033203	12857.503906
964.273438	12863.054688
962.511719	13257.656250
960.750000	13750.024414
958.990234	14016.502930
957.226563	14505.627930
955.464844	14612.923828
953.703125	14708.821289
951.939453	14818.853516
950.175781	15188.254883
948.412109	15381.741211
946.648438	15913.788086
944.882813	16224.593750
943.117188	16386.542969
941.351563	16350.178711
939.585938	16117.056641
937.820313	15760.909180
936.052734	15467.183594
934.285156	15399.938477
932.517578	15220.990234
930.750000	15428.145508
928.982422	15362.365234
927.212891	15515.680664
925.443359	15278.932617
923.673828	15183.560547
921.904297	14866.491211
920.132813	14517.091797
918.361328	14054.916016
916.591797	13803.248047
914.818359	13380.959961
913.046875	12884.097656
911.275391	12762.629883
909.501953	12679.288086
907.728516	12708.763672
905.955078	12526.812500
904.179688	12452.035156
902.406250	12574.516602
900.630859	12453.281250
898.855469	12465.871094
897.080078	12236.318359
895.302734	11959.017578
893.525391	11881.655273
891.750000	12012.531250
889.970703	11808.608398
888.193359	11517.599609
886.416016	11468.523438
884.636719	10997.826172
882.857422	10902.522461
881.078125	10852.214844
879.296875	10764.008789
877.517578	10614.060547
875.736328	10871.291992
873.955078	10672.263672
872.173828	10793.250977
870.390625	11027.812500
868.609375	11402.515625
866.826172	11730.769531
865.042969	11886.439453
863.259766	11844.418945
861.474609	11847.254883
859.689453	11760.431641
857.904297	11612.023438
856.119141	11536.495117
854.333984	11326.611328
852.546875	11518.501953
850.761719	11206.572266
848.974609	11073.849609
847.185547	10841.887695
845.398438	10745.666016
843.609375	10764.118164
841.822266	10726.656250
840.031250	10657.074219
838.242188	10428.269531
836.453125	10551.522461
834.662109	10535.085938
832.871094	10517.259766
831.080078	10594.345703
829.289063	10469.072266
827.496094	10521.021484
825.703125	10830.958008
823.910156	11114.254883
822.117188	11493.604492
820.324219	12187.748047
818.529297	13352.517578
816.734375	14543.206055
814.939453	15606.598633
813.144531	16204.437500
811.347656	15638.243164
809.550781	14788.403320
807.755859	13563.286133
805.957031	12790.838867
804.160156	12424.848633
802.361328	11935.283203
800.564453	11664.189453
798.765625	11981.089844
796.964844	12199.190430
795.166016	11951.837891
793.365234	11524.059570
791.564453	11282.533203
789.763672	10956.444336
787.962891	10619.406250
786.160156	10508.682617
784.359375	10389.687500
782.556641	10367.824219
780.751953	10122.745117
778.949219	10319.966797
777.144531	10270.416016
775.339844	10252.753906
773.535156	10174.151367
771.730469	10130.207031
769.925781	10172.122070
768.119141	10357.973633
766.312500	10164.555664
764.505859	10236.868164
762.697266	10285.631836
760.890625	10335.753906
759.082031	10546.228516
757.273438	10881.005859
755.464844	11131.326172
753.654297	11102.447266
751.845703	11319.444336
750.035156	11268.437500
748.224609	11060.063477
746.412109	10911.139648
744.601563	10960.999023
742.789063	11341.945313
740.976563	11873.053711
739.164063	13289.214844
737.349609	15008.007813
735.537109	17849.322266
733.722656	20798.154297
731.908203	21986.298828
730.091797	21926.000000
728.277344	20083.863281
726.460938	17634.097656
724.644531	15463.515625
722.828125	13772.824219
721.009766	12901.484375
719.193359	11934.278320
717.375000	11403.425781
715.556641	10904.442383
713.736328	10731.430664
711.917969	10925.382813
710.097656	11182.433594
708.277344	12108.226563
706.457031	12189.116211
704.636719	11641.229492
702.814453	10617.357422
700.992188	10382.948242
699.169922	10280.342773
697.347656	10535.743164
695.523438	10549.696289
693.699219	10315.522461
691.875000	10156.835938
690.050781	9985.892578
688.226563	10010.918945
686.400391	9923.630859
684.574219	9980.149414
682.748047	9799.825195
680.921875	9835.816406
679.095703	9808.851563
677.267578	10030.858398
675.439453	10312.931641
673.611328	10240.750000
671.781250	10020.973633
669.953125	10017.225586
668.123047	10027.140625
666.292969	10106.713867
664.460938	10399.287109
662.630859	10510.133789
660.798828	10745.140625
658.966797	11265.249023
657.134766	11461.761719
655.302734	11475.402344
653.468750	11362.212891
651.634766	11534.018555
649.800781	11638.953125
647.966797	11987.761719
646.130859	11815.972656
644.294922	11753.228516
642.458984	11597.915039
640.623047	11007.022461
638.787109	10382.383789
636.949219	10118.643555
635.111328	9974.747070
633.273438	9718.029297
631.435547	9772.824219
629.595703	9852.063477
627.757813	9885.053711
625.917969	10139.514648
624.076172	10252.569336
622.236328	10286.795898
620.394531	10600.721680
618.552734	10595.479492
616.710938	10673.027344
614.869141	10579.571289
613.025391	10528.211914
611.183594	10855.264648
609.339844	10905.554688
607.494141	10778.239258
605.650391	10556.115234
603.804688	10376.099609
601.958984	10242.226563
600.113281	10311.558594
598.267578	10487.821289
596.419922	10371.611328
594.572266	10492.288086
592.724609	10403.190430
590.876953	10400.707031
589.027344	10176.437500
587.179688	9829.240234
585.330078	9611.971680
583.480469	9478.591797
581.628906	9527.667969
579.779297	9529.443359
577.927734	9609.541992
576.076172	9831.361328
574.222656	10132.709961
572.371094	10220.701172
570.517578	10268.176758
568.664063	10194.235352
566.810547	10276.752930
564.955078	10255.421875
563.101563	10263.752930
561.246094	10111.725586
559.390625	9907.229492
557.533203	10117.666016
555.677734	10092.355469
553.820313	10155.906250
551.962891	10102.333008
550.105469	9709.699219
548.246094	10120.371094
546.386719	10487.807617
544.527344	10857.756836
542.667969	10921.029297
540.808594	10671.125977
538.947266	10045.119141
537.085938	9598.074219
535.224609	9328.519531
533.363281	9252.439453
531.500000	8878.390625
529.638672	8904.448242
527.775391	8646.048828
525.910156	8646.662109
524.046875	8683.483398
522.181641	8940.170898
520.316406	9305.310547
518.451172	9233.396484
516.585938	9034.236328
514.718750	8782.930664
512.851563	8748.688477
510.984375	8825.584961
509.117188	9005.508789
507.250000	8971.235352
505.380859	8946.343750
503.511719	8964.263672
501.642578	8872.522461
499.771484	8779.487305
497.902344	8854.907227
496.031250	8931.625977
494.160156	8974.909180
492.287109	8853.887695
490.416016	8974.615234
488.542969	8860.326172
486.669922	8786.131836
484.796875	8463.782227
482.921875	8408.393555
481.046875	8210.323242
479.171875	8108.352051
477.296875	8095.744629
475.421875	8139.118164
473.544922	8126.508789
471.667969	8276.421875
469.791016	8391.636719
467.914063	8536.087891
466.035156	8305.083984
464.156250	8287.124023
462.277344	8355.655273
460.398438	8203.339844
458.519531	8098.973633
456.638672	8148.885254
454.757813	8152.249512
452.876953	8148.966797
450.994141	8129.741699
449.113281	7905.969238
447.230469	8022.263672
445.347656	7914.128906
443.462891	7922.850586
441.580078	8163.795410
439.695313	8413.911133
437.810547	8795.217773
435.925781	9071.583008
434.039063	8993.841797
432.152344	8672.257813
430.267578	8179.889648
428.378906	7793.740234
426.492188	7770.680664
424.603516	7541.063477
422.714844	7614.714844
420.826172	7667.154297
418.937500	7857.181152
417.046875	8422.816406
415.158203	8349.378906
413.265625	8262.753906
411.375000	8057.195313
409.484375	7878.167480
407.591797	7740.185547
405.699219	7737.009277
403.806641	7683.649414
401.912109	7771.591797
400.019531	7751.249023
