#Wave		#Intensity
1585.210938	27951.154297
1584.209961	28208.412109
1583.208984	28165.111328
1582.208008	28271.623047
1581.206055	28283.238281
1580.204102	28080.228516
1579.202148	28056.945313
1578.200195	27824.130859
1577.198242	28102.685547
1576.195313	27393.695313
1575.192383	27776.927734
1574.189453	27534.388672
1573.186523	27431.500000
1572.182617	27590.253906
1571.178711	27111.261719
1570.174805	26966.183594
1569.170898	27236.978516
1568.166992	26999.824219
1567.162109	27208.275391
1566.158203	27287.244141
1565.153320	27132.324219
1564.147461	26820.765625
1563.142578	26897.275391
1562.136719	26951.376953
1561.130859	26983.082031
1560.125000	26853.232422
1559.119141	27275.046875
1558.113281	27112.894531
1557.106445	27132.117188
1556.099609	27513.878906
1555.092773	27664.591797
1554.084961	27688.648438
1553.078125	27970.789063
1552.070313	28084.091797
1551.062500	28048.509766
1550.054688	27963.337891
1549.045898	28718.787109
1548.038086	29030.166016
1547.029297	29093.554688
1546.020508	29156.917969
1545.011719	29777.701172
1544.001953	30150.523438
1542.992188	30557.861328
1541.982422	30799.136719
1540.972656	31104.671875
1539.962891	31660.054688
1538.952148	31497.607422
1537.942383	31496.035156
1536.931641	31749.226563
1535.919922	31858.880859
1534.909180	31493.783203
1533.897461	31299.396484
1532.886719	31117.447266
1531.874023	30698.365234
1530.862305	30301.689453
1529.850586	30011.380859
1528.837891	29758.230469
1527.825195	29426.181641
1526.812500	28889.396484
1525.799805	28703.263672
1524.786133	28309.951172
1523.772461	28175.816406
1522.758789	27597.802734
1521.745117	27510.716797
1520.731445	27426.130859
1519.716797	26971.865234
1518.702148	26936.708984
1517.687500	27066.636719
1516.672852	26620.113281
1515.657227	26851.021484
1514.642578	26638.636719
1513.626953	26847.287109
1512.610352	26666.982422
1511.594727	26720.515625
1510.579102	26552.611328
1509.562500	26552.031250
1508.545898	26487.511719
1507.529297	26437.769531
1506.511719	26493.746094
1505.494141	26591.478516
1504.477539	26465.572266
1503.458984	26555.896484
1502.441406	26508.642578
1501.423828	26274.781250
1500.405273	26095.027344
1499.386719	26337.533203
1498.368164	26356.617188
1497.348633	26331.527344
1496.330078	26564.017578
1495.310547	25918.400391
1494.291016	26219.533203
1493.271484	26299.904297
1492.250977	26338.572266
1491.231445	26262.048828
1490.210938	26202.707031
1489.190430	26094.398438
1488.168945	26515.113281
1487.148438	26565.931641
1486.126953	26734.230469
1485.105469	26726.242188
1484.083984	26889.541016
1483.061523	26852.164063
1482.040039	27093.636719
1481.017578	27376.580078
1479.995117	27551.828125
1478.971680	27709.892578
1477.949219	27643.048828
1476.925781	28135.771484
1475.902344	28049.320313
1474.878906	28468.480469
1473.855469	28560.251953
1472.831055	29037.720703
1471.806641	28995.083984
1470.782227	29555.234375
1469.757813	29973.638672
1468.733398	30247.947266
1467.708008	30485.556641
1466.682617	31149.775391
1465.657227	31177.441406
1464.631836	31868.048828
1463.605469	31941.851563
1462.579102	32875.640625
1461.552734	33265.855469
1460.526367	34062.601563
1459.500000	34428.058594
1458.472656	34900.468750
1457.445313	35134.167969
1456.417969	35854.425781
1455.390625	36126.753906
1454.362305	36060.878906
1453.334961	35569.468750
1452.306641	35430.796875
1451.277344	35022.363281
1450.249023	34652.984375
1449.219727	34179.273438
1448.191406	33717.906250
1447.162109	32889.992188
1446.131836	32001.708984
1445.102539	31635.757813
1444.072266	31233.546875
1443.041992	30605.818359
1442.011719	30233.099609
1440.981445	29647.072266
1439.950195	29364.437500
1438.918945	28706.089844
1437.887695	28974.058594
1436.856445	28800.800781
1435.825195	28615.498047
1434.792969	28490.837891
1433.760742	28170.031250
1432.728516	28161.751953
1431.696289	27720.083984
1430.663086	27799.042969
1429.629883	27345.531250
1428.596680	27521.318359
1427.563477	27268.839844
1426.530273	26779.435547
1425.496094	26822.226563
1424.461914	26823.900391
1423.427734	26612.861328
1422.393555	26636.324219
1421.358398	26326.345703
1420.323242	26352.271484
1419.288086	26030.402344
1418.252930	26181.937500
1417.217773	25983.355469
1416.181641	26284.478516
1415.145508	26177.654297
1414.109375	26466.544922
1413.073242	26547.869141
1412.036133	26520.636719
1411.000000	26534.402344
1409.962891	26495.126953
1408.924805	26822.203125
1407.887695	27023.843750
1406.849609	26989.302734
1405.812500	27817.060547
1404.773438	28068.931641
1403.735352	28621.646484
1402.697266	29015.259766
1401.658203	29158.421875
1400.619141	29116.251953
1399.580078	29579.273438
1398.540039	29630.830078
1397.500977	29413.046875
1396.460938	29724.253906
1395.420898	29982.449219
1394.380859	29377.826172
1393.339844	29845.007813
1392.298828	29346.353516
1391.257813	29426.687500
1390.216797	29033.970703
1389.175781	29071.123047
1388.133789	28880.250000
1387.091797	28934.210938
1386.049805	29110.501953
1385.007813	29082.835938
1383.964844	29211.056641
1382.922852	29794.763672
1381.879883	29848.466797
1380.835938	30163.375000
1379.792969	30030.082031
1378.749023	30514.904297
1377.706055	30534.873047
1376.661133	30772.740234
1375.617188	30598.724609
1374.573242	30970.515625
1373.528320	30818.064453
1372.483398	31280.568359
1371.438477	31144.855469
1370.392578	31207.699219
1369.347656	31497.667969
1368.301758	31278.320313
1367.255859	31515.566406
1366.208984	30749.087891
1365.163086	31203.746094
1364.116211	31655.826172
1363.069336	31333.974609
1362.022461	31246.240234
1360.974609	31316.087891
1359.927734	31307.144531
1358.879883	31574.990234
1357.832031	31709.128906
1356.783203	31650.017578
1355.735352	31965.308594
1354.686523	31989.605469
1353.637695	32333.292969
1352.588867	32240.728516
1351.539063	33189.390625
1350.490234	33554.039063
1349.440430	34101.917969
1348.390625	34835.289063
1347.339844	35637.386719
1346.290039	35701.316406
1345.239258	36438.640625
1344.188477	37092.386719
1343.137695	37527.027344
1342.085938	38220.691406
1341.034180	38878.402344
1339.982422	39455.011719
1338.930664	39769.949219
1337.878906	40087.128906
1336.826172	40361.410156
1335.773438	41025.093750
1334.720703	40738.652344
1333.667969	40340.746094
1332.614258	40280.054688
1331.561523	40288.207031
1330.507813	40025.875000
1329.453125	40067.281250
1328.399414	39311.808594
1327.344727	39170.765625
1326.290039	39067.710938
1325.235352	38412.457031
1324.180664	38046.570313
1323.125000	37652.406250
1322.070313	37710.808594
1321.014648	37496.851563
1319.958008	37652.332031
1318.902344	37197.027344
1317.845703	36926.503906
1316.789063	36578.015625
1315.732422	36267.515625
1314.675781	35642.582031
1313.618164	35658.726563
1312.560547	35128.746094
1311.502930	34123.894531
1310.445313	33462.117188
1309.386719	32684.847656
1308.329102	32368.521484
1307.270508	31832.693359
1306.210938	31169.585938
1305.152344	30674.361328
1304.092773	29848.921875
1303.033203	29887.464844
1301.973633	29435.281250
1300.914063	29157.830078
1299.853516	29012.548828
1298.792969	28645.707031
1297.732422	28396.876953
1296.671875	28525.216797
1295.611328	28243.525391
1294.549805	27980.794922
1293.488281	27840.644531
1292.426758	27782.964844
1291.364258	27668.808594
1290.302734	27526.451172
1289.240234	27624.179688
1288.177734	27143.099609
1287.114258	27266.738281
1286.051758	27155.150391
1284.988281	27252.867188
1283.924805	27026.140625
1282.861328	26966.373047
1281.796875	26923.078125
1280.732422	27072.433594
1279.667969	26998.597656
1278.603516	26776.849609
1277.539063	27266.558594
1276.473633	27216.193359
1275.408203	27454.496094
1274.342773	27183.560547
1273.277344	27271.636719
1272.210938	27319.806641
1271.145508	27480.500000
1270.079102	27409.041016
1269.011719	27222.767578
1267.945313	27231.062500
1266.877930	27260.435547
1265.810547	26931.425781
1264.743164	26729.011719
1263.674805	26716.322266
1262.607422	26263.570313
1261.539063	26194.814453
1260.470703	26060.572266
1259.401367	25912.349609
1258.333008	25719.750000
1257.263672	25754.044922
1256.194336	25334.791016
1255.125000	25551.458984
1254.054688	25151.115234
1252.985352	25197.175781
1251.915039	24827.437500
1250.843750	24838.513672
1249.773438	24763.195313
1248.702148	24424.125000
1247.630859	24512.291016
1246.559570	24474.416016
1245.488281	24378.234375
1244.416016	24293.753906
1243.343750	24451.820313
1242.271484	24327.722656
1241.199219	24159.388672
1240.125977	23963.162109
1239.053711	23988.353516
1237.980469	24185.904297
1236.906250	24204.048828
1235.833008	24080.150391
1234.758789	24133.222656
1233.684570	23890.691406
1232.610352	23992.642578
1231.536133	23824.685547
1230.460938	23933.580078
1229.385742	23709.892578
1228.310547	23730.416016
1227.235352	24043.804688
1226.159180	23885.302734
1225.083008	23759.392578
1224.006836	24033.080078
1222.930664	24141.755859
1221.853516	23922.988281
1220.777344	24266.103516
1219.700195	24024.189453
1218.622070	24065.472656
1217.544922	24273.773438
1216.466797	24433.275391
1215.388672	24608.939453
1214.310547	24462.257813
1213.232422	24545.119141
1212.153320	24739.179688
1211.074219	24585.607422
1209.995117	24969.527344
1208.916016	24936.400391
1207.835938	25125.572266
1206.755859	25120.203125
1205.675781	25105.574219
1204.595703	25109.460938
1203.514648	25090.210938
1202.434570	24858.166016
1201.353516	24489.779297
1200.271484	24905.332031
1199.190430	24807.539063
1198.108398	24633.523438
1197.026367	24344.050781
1195.944336	24657.626953
1194.862305	24352.103516
1193.779297	24088.269531
1192.696289	23847.634766
1191.613281	23794.054688
1190.530273	23770.496094
1189.446289	23742.330078
1188.362305	23598.843750
1187.278320	23390.845703
1186.194336	23362.773438
1185.109375	23219.455078
1184.024414	23221.388672
1182.939453	23409.953125
1181.854492	23492.466797
1180.768555	23259.414063
1179.683594	22798.498047
1178.597656	22874.177734
1177.510742	22848.550781
1176.424805	23218.732422
1175.337891	22693.792969
1174.250977	22573.908203
1173.164063	22828.921875
1172.077148	22801.023438
1170.989258	22729.458984
1169.901367	22598.171875
1168.813477	22717.386719
1167.724609	22834.251953
1166.636719	22987.814453
1165.547852	22367.480469
1164.458984	22734.574219
1163.369141	22720.500000
1162.280273	22871.652344
1161.190430	22981.439453
1160.100586	22926.027344
1159.010742	23320.115234
1157.919922	23127.085938
1156.829102	23119.810547
1155.738281	23016.281250
1154.647461	22857.804688
1153.555664	23114.025391
1152.464844	23054.074219
1151.373047	23278.082031
1150.280273	23012.080078
1149.188477	23240.574219
1148.095703	22851.123047
1147.002930	23040.656250
1145.910156	22925.890625
1144.817383	22600.785156
1143.723633	22799.388672
1142.629883	22792.179688
1141.536133	22624.996094
1140.441406	22800.611328
1139.347656	22617.503906
1138.252930	22443.609375
1137.158203	22256.085938
1136.062500	22557.181641
1134.967773	22289.828125
1133.872070	22474.404297
1132.776367	22223.152344
1131.679688	22122.544922
1130.583984	22284.228516
1129.487305	22240.646484
1128.390625	22142.375000
1127.292969	22322.173828
1126.196289	22392.529297
1125.098633	22453.740234
1124.000977	22063.984375
1122.903320	22006.833984
1121.804688	22222.882813
1120.706055	22038.263672
1119.607422	22281.513672
1118.508789	21901.308594
1117.409180	22078.517578
1116.310547	21950.933594
1115.210938	22164.427734
1114.110352	22218.716797
1113.010742	21968.460938
1111.910156	21616.072266
1110.809570	21815.816406
1109.708984	21858.771484
1108.607422	21794.990234
1107.506836	21608.650391
1106.405273	21780.982422
1105.303711	21703.638672
1104.201172	21528.777344
1103.098633	21705.544922
1101.996094	21301.728516
1100.893555	21186.007813
1099.791016	21496.458984
1098.687500	21260.638672
1097.583984	21613.980469
1096.480469	21563.972656
1095.376953	21534.369141
1094.272461	21457.226563
1093.167969	21524.992188
1092.063477	21346.041016
1090.958008	21379.855469
1089.853516	21508.666016
1088.748047	22058.087891
1087.642578	21788.722656
1086.536133	21924.134766
1085.430664	22516.046875
1084.324219	22691.912109
1083.217773	22655.333984
1082.110352	23061.478516
1081.003906	23410.986328
1079.896484	23071.732422
1078.789063	23590.376953
1077.680664	23684.523438
1076.573242	23884.669922
1075.464844	23811.781250
1074.356445	24113.294922
1073.247070	23790.103516
1072.138672	23922.416016
1071.029297	23385.294922
1069.919922	23513.126953
1068.809570	23318.750000
1067.700195	23038.869141
1066.589844	22979.787109
1065.479492	22832.925781
1064.368164	22373.261719
1063.257813	22532.640625
1062.146484	22259.976563
1061.035156	21836.724609
1059.922852	21780.218750
1058.811523	21694.507813
1057.699219	21795.406250
1056.586914	21669.271484
1055.473633	21248.847656
1054.361328	20974.623047
1053.248047	21376.535156
1052.134766	20960.937500
1051.021484	21207.771484
1049.907227	21099.876953
1048.792969	21106.466797
1047.678711	21056.968750
1046.564453	20920.011719
1045.449219	20758.449219
1044.333984	21009.476563
1043.218750	21092.279297
1042.103516	21136.949219
1040.987305	20892.574219
1039.871094	20724.464844
1038.754883	20789.335938
1037.638672	20972.843750
1036.521484	20744.380859
1035.404297	20968.099609
1034.287109	21057.464844
1033.169922	21175.871094
1032.051758	21325.535156
1030.933594	21003.322266
1029.815430	21159.660156
1028.697266	21175.119141
1027.578125	20964.876953
1026.458984	21051.857422
1025.339844	21225.910156
1024.220703	21169.873047
1023.100586	21359.447266
1021.980469	21401.615234
1020.860352	21631.220703
1019.740234	21090.978516
1018.619141	21159.939453
1017.498047	21008.083984
1016.376953	20916.492188
1015.255859	20920.794922
1014.133789	21009.785156
1013.011719	21078.677734
1011.889648	21045.066406
1010.767578	21603.904297
1009.644531	21220.591797
1008.521484	21351.705078
1007.398438	20815.039063
1006.274414	21166.480469
1005.151367	20963.800781
1004.027344	21039.240234
1002.902344	21265.861328
1001.778320	21205.578125
1000.653320	21180.884766
999.528320	21189.535156
998.403320	21140.412109
997.278320	21211.259766
996.152344	20993.367188
995.026367	21226.294922
993.900391	21132.802734
992.773438	21261.285156
991.646484	21121.226563
990.519531	20899.150391
989.392578	21378.015625
988.265625	21393.236328
987.137695	21335.289063
986.009766	21204.226563
984.881836	21432.195313
983.752930	21504.982422
982.624023	21602.101563
981.495117	21544.162109
980.366211	21386.621094
979.236328	21508.042969
978.106445	21262.058594
976.976563	21095.828125
975.846680	21312.343750
974.715820	21360.685547
973.585938	20997.761719
972.454102	20893.625000
971.323242	20754.173828
970.191406	20917.484375
969.060547	21071.886719
967.927734	20848.558594
966.795898	20883.667969
965.663086	21245.476563
964.530273	21176.748047
963.397461	21253.679688
962.264648	21507.062500
961.130859	21850.759766
959.997070	21821.640625
958.863281	21730.802734
957.729492	21800.906250
956.594727	21584.503906
955.459961	21828.650391
954.325195	21643.169922
953.189453	21611.921875
952.053711	21314.285156
950.917969	21278.718750
949.782227	21317.990234
948.646484	20787.390625
947.509766	20723.363281
946.373047	20848.494141
945.235352	20933.992188
944.098633	20494.072266
942.960938	20867.509766
941.823242	20638.732422
940.685547	20702.224609
939.546875	20818.398438
938.408203	21000.390625
937.269531	20778.365234
936.129883	21015.152344
934.991211	20786.636719
933.851563	20562.611328
932.711914	20849.726563
931.571289	21220.041016
930.431641	21094.716797
929.291016	21193.017578
928.149414	20925.314453
927.008789	21060.849609
925.867188	21310.220703
924.725586	21176.248047
923.583984	21062.039063
922.441406	20991.656250
921.299805	20790.000000
920.157227	20695.638672
919.013672	20596.943359
917.871094	20765.099609
916.727539	20340.646484
915.583984	20060.656250
914.439453	20086.755859
913.295898	20584.800781
912.151367	20309.308594
911.006836	20258.890625
909.861328	20298.017578
908.716797	19970.375000
907.571289	20002.998047
906.424805	20273.447266
905.279297	20325.619141
904.132813	20155.294922
902.986328	20179.117188
901.839844	20183.306641
900.692383	19923.759766
899.545898	20034.779297
898.398438	20263.390625
897.250000	20003.996094
896.102539	20326.146484
894.954102	19934.044922
893.805664	20238.650391
892.656250	19933.787109
891.507813	20040.263672
890.358398	20064.035156
889.208984	19939.912109
888.058594	20065.878906
886.908203	19837.468750
885.758789	19759.113281
884.607422	19869.822266
883.457031	20078.230469
882.305664	19669.759766
881.154297	19910.683594
880.002930	19680.437500
878.850586	20092.701172
877.698242	19849.494141
876.545898	19779.941406
875.393555	19786.326172
874.240234	19721.152344
873.086914	19586.634766
871.933594	19610.392578
870.780273	19569.132813
869.625977	19562.552734
868.471680	19729.246094
867.317383	19763.771484
866.162109	19729.001953
865.007813	19553.556641
863.852539	19601.078125
862.696289	19724.296875
861.541016	19730.656250
860.384766	19704.574219
859.228516	19710.933594
858.072266	19427.644531
856.915039	19723.636719
855.757813	19684.611328
854.600586	19522.478516
853.442383	19632.519531
852.285156	19606.490234
851.126953	19884.830078
849.968750	19800.482422
848.809570	19718.330078
847.650391	19528.355469
846.491211	19707.250000
845.332031	19631.636719
844.171875	19678.929688
843.012695	19661.542969
841.851563	19596.759766
840.691406	19730.189453
839.530273	19665.416016
838.369141	19570.527344
837.208008	19617.757813
836.046875	19346.435547
834.884766	19471.154297
833.722656	19711.984375
832.560547	19550.509766
831.397461	19528.875000
830.234375	19582.490234
829.071289	19586.644531
827.908203	19487.654297
826.744141	19564.869141
825.580078	19511.029297
824.416016	19659.062500
823.251953	19444.207031
822.086914	19611.503906
820.921875	19491.171875
819.756836	19621.906250
818.590820	19608.871094
817.425781	19649.449219
816.259766	19462.750000
815.092773	19426.175781
813.926758	19518.193359
812.759766	19378.781250
811.592773	19393.654297
810.424805	19404.236328
809.257813	19464.054688
808.089844	19275.541016
806.920898	19326.798828
805.752930	19343.796875
804.583984	19442.072266
803.415039	19452.617188
802.246094	19514.470703
801.076172	19533.542969
799.906250	19497.039063
798.736328	19328.078125
797.566406	19616.330078
796.395508	19227.443359
795.224609	19635.154297
794.053711	19605.064453
792.881836	19890.849609
791.710938	19465.972656
790.538086	19830.587891
789.366211	20271.812500
788.194336	20326.894531
787.021484	20183.693359
785.848633	20183.353516
784.674805	20577.212891
783.500977	20165.626953
782.327148	20080.093750
781.153320	19937.103516
779.979492	20213.564453
778.804688	19872.667969
777.629883	20080.919922
776.454102	19823.175781
775.279297	19810.142578
774.103516	19726.939453
772.927734	19784.087891
771.750977	19813.576172
770.575195	19872.798828
769.398438	19957.488281
768.220703	20027.267578
767.043945	20226.548828
765.866211	19882.240234
764.688477	20421.068359
763.510742	20320.908203
762.332031	20575.093750
761.153320	21121.875000
759.974609	21100.078125
758.794922	21621.042969
757.616211	22290.142578
756.436523	22797.878906
755.255859	23576.570313
754.076172	24880.214844
752.895508	26577.152344
751.714844	28048.884766
750.533203	30000.441406
749.352539	32679.089844
748.170898	34611.761719
746.988281	37049.093750
745.806641	38394.078125
744.624023	39157.003906
743.441406	39443.968750
742.258789	39532.144531
741.075195	39292.785156
739.891602	39051.417969
738.708008	39458.507813
737.523438	40004.761719
736.339844	41082.714844
735.155273	42293.125000
733.969727	42901.640625
732.785156	43109.078125
731.599609	42295.667969
730.414063	40963.933594
729.227539	39103.699219
728.041992	36213.730469
726.855469	33647.460938
725.667969	30743.210938
724.481445	28661.664063
723.293945	27099.046875
722.106445	25718.185547
720.918945	24438.978516
719.730469	23600.123047
718.541992	22980.433594
717.353516	22438.843750
716.164063	21531.630859
714.975586	21253.396484
713.786133	21082.476563
712.595703	20714.115234
711.406250	20749.269531
710.215820	20318.142578
709.025391	20286.173828
707.833984	20155.550781
706.642578	20113.138672
705.451172	20267.988281
704.259766	20097.595703
703.068359	20061.511719
701.875977	20140.773438
700.683594	20163.394531
699.490234	20621.957031
698.297852	20860.285156
697.104492	21312.189453
695.910156	21518.828125
694.716797	22206.994141
693.522461	22909.496094
692.328125	22452.123047
691.132813	22626.914063
689.938477	22567.310547
688.743164	22704.341797
687.547852	22149.148438
686.351563	22160.771484
685.155273	21844.234375
683.958984	21609.337891
682.762695	21345.298828
681.565430	21265.185547
680.368164	20980.462891
679.170898	20917.169922
677.973633	20876.865234
676.775391	20475.564453
675.577148	20608.539063
674.378906	20401.462891
673.179688	20473.917969
671.980469	20575.523438
670.781250	20039.261719
669.581055	20234.693359
668.381836	20119.605469
667.181641	19873.343750
665.980469	20016.613281
664.780273	19776.730469
663.579102	19676.417969
662.377930	19848.765625
661.175781	19875.392578
659.973633	19718.960938
658.771484	19720.648438
657.569336	19940.638672
656.367188	20060.751953
655.164063	19900.259766
653.960938	20196.925781
652.756836	20186.029297
651.552734	20472.105469
650.348633	20778.810547
649.144531	20771.935547
647.939453	20962.210938
646.735352	21098.455078
645.529297	21205.591797
644.324219	21246.316406
643.118164	21620.830078
641.912109	21447.931641
640.706055	21266.820313
639.499023	20830.949219
638.292969	20894.492188
637.084961	20661.857422
635.877930	20551.486328
634.669922	20840.673828
633.461914	20599.929688
632.253906	20648.962891
631.044922	20385.617188
629.836914	20314.724609
628.626953	20285.214844
627.417969	20059.341797
626.208008	20222.099609
624.998047	20025.267578
623.788086	20196.218750
622.577148	20113.068359
621.366211	20356.181641
620.155273	19986.097656
618.944336	19931.943359
617.732422	20137.787109
616.520508	19893.837891
615.308594	20025.349609
614.095703	19857.826172
612.882813	19612.046875
611.669922	19479.730469
610.457031	19205.302734
609.243164	19369.773438
608.029297	19307.623047
606.815430	19255.794922
605.600586	19088.712891
604.385742	18977.273438
603.170898	19075.755859
601.955078	19034.310547
600.740234	18667.935547
599.524414	19011.099609
598.307617	18803.185547
597.091797	18800.884766
595.875000	18810.912109
594.658203	18870.234375
593.440430	18861.753906
592.222656	19001.113281
591.004883	18680.578125
589.787109	18655.724609
588.568359	18485.201172
587.349609	18415.271484
586.130859	18548.414063
584.912109	18369.828125
583.692383	18375.820313
582.472656	18373.609375
581.251953	18557.859375
580.032227	18576.089844
578.811523	18467.332031
577.589844	18479.431641
576.369141	18798.589844
575.147461	18732.832031
573.925781	19121.349609
572.703125	19008.494141
571.481445	19333.365234
570.258789	19576.294922
569.035156	19902.923828
567.812500	20233.488281
566.588867	20445.386719
565.365234	20389.574219
564.140625	20558.445313
562.916992	20633.308594
561.692383	20787.753906
560.466797	20731.906250
559.242188	20647.519531
558.016602	20383.648438
556.791016	20252.468750
555.564453	20049.982422
554.337891	19766.044922
553.111328	19575.990234
551.884766	19159.845703
550.657227	19051.505859
549.429688	19104.111328
548.202148	18938.816406
546.974609	18806.169922
545.746094	18921.886719
544.517578	18378.273438
543.288086	18626.263672
542.058594	18546.689453
540.829102	18603.384766
539.599609	18806.423828
538.370117	18635.398438
537.139648	18622.945313
535.909180	18728.322266
534.677734	18480.251953
533.446289	18693.230469
532.214844	18548.816406
530.983398	18597.279297
529.750977	18457.009766
528.519531	18308.689453
527.286133	18448.441406
526.053711	18328.578125
524.820313	18291.886719
523.586914	18176.166016
522.353516	18366.472656
521.119141	18524.275391
519.884766	18088.570313
518.650391	18092.470703
517.415039	18254.273438
516.179688	18045.615234
514.944336	18189.138672
513.708984	18174.800781
