#Wave		#Intensity
1585.210938	20892.808594
1584.209961	20890.310547
1583.208984	21025.820313
1582.208008	20974.029297
1581.206055	20899.792969
1580.204102	20735.746094
1579.202148	20758.896484
1578.200195	20811.970703
1577.198242	20932.361328
1576.195313	20920.544922
1575.192383	20679.376953
1574.189453	20717.464844
1573.186523	20748.062500
1572.182617	20434.826172
1571.178711	20540.193359
1570.174805	20398.966797
1569.170898	20135.792969
1568.166992	20492.583984
1567.162109	20458.472656
1566.158203	20454.236328
1565.153320	20360.437500
1564.147461	20206.982422
1563.142578	20424.123047
1562.136719	20581.503906
1561.130859	20537.468750
1560.125000	20692.273438
1559.119141	20516.541016
1558.113281	20817.853516
1557.106445	20890.537109
1556.099609	20992.990234
1555.092773	21378.425781
1554.084961	21254.853516
1553.078125	21448.986328
1552.070313	21474.318359
1551.062500	21789.875000
1550.054688	22055.695313
1549.045898	22571.845703
1548.038086	22656.419922
1547.029297	23110.267578
1546.020508	23155.042969
1545.011719	23192.367188
1544.001953	24401.314453
1542.992188	24297.201172
1541.982422	24715.570313
1540.972656	24678.271484
1539.962891	24987.486328
1538.952148	25180.269531
1537.942383	25199.796875
1536.931641	25298.464844
1535.919922	24932.177734
1534.909180	24889.929688
1533.897461	24662.302734
1532.886719	24197.515625
1531.874023	24064.019531
1530.862305	23466.146484
1529.850586	23402.009766
1528.837891	23135.412109
1527.825195	22308.496094
1526.812500	22020.019531
1525.799805	22141.318359
1524.786133	21927.011719
1523.772461	21485.847656
1522.758789	21515.927734
1521.745117	21198.318359
1520.731445	21058.337891
1519.716797	21034.259766
1518.702148	21091.509766
1517.687500	20712.654297
1516.672852	20939.908203
1515.657227	20595.716797
1514.642578	20963.244141
1513.626953	20641.343750
1512.610352	20757.667969
1511.594727	21144.617188
1510.579102	20911.441406
1509.562500	20889.892578
1508.545898	20969.177734
1507.529297	20805.021484
1506.511719	20852.333984
1505.494141	20848.013672
1504.477539	20711.011719
1503.458984	20679.699219
1502.441406	20636.117188
1501.423828	20774.265625
1500.405273	20679.125000
1499.386719	20881.025391
1498.368164	20876.699219
1497.348633	20850.291016
1496.330078	20801.816406
1495.310547	20709.214844
1494.291016	20935.414063
1493.271484	20695.730469
1492.250977	20934.091797
1491.231445	20797.425781
1490.210938	20533.416016
1489.190430	21033.755859
1488.168945	20617.966797
1487.148438	20931.996094
1486.126953	20846.873047
1485.105469	21016.322266
1484.083984	21163.677734
1483.061523	21159.289063
1482.040039	21157.349609
1481.017578	21245.888672
1479.995117	21344.171875
1478.971680	21219.968750
1477.949219	21354.873047
1476.925781	21780.482422
1475.902344	21890.783203
1474.878906	22025.458984
1473.855469	22519.035156
1472.831055	22394.738281
1471.806641	22790.394531
1470.782227	23210.291016
1469.757813	23529.978516
1468.733398	23810.500000
1467.708008	24037.251953
1466.682617	24744.259766
1465.657227	24822.011719
1464.631836	25321.388672
1463.605469	25688.968750
1462.579102	26317.080078
1461.552734	26803.652344
1460.526367	27177.996094
1459.500000	27637.402344
1458.472656	27867.792969
1457.445313	28609.181641
1456.417969	28678.673828
1455.390625	28638.662109
1454.362305	28837.027344
1453.334961	28779.972656
1452.306641	28664.589844
1451.277344	27912.396484
1450.249023	27474.013672
1449.219727	27184.027344
1448.191406	26376.732422
1447.162109	25688.777344
1446.131836	25141.945313
1445.102539	24685.164063
1444.072266	24471.294922
1443.041992	23677.527344
1442.011719	23391.166016
1440.981445	23124.328125
1439.950195	22898.828125
1438.918945	22634.626953
1437.887695	22355.988281
1436.856445	22142.902344
1435.825195	22344.271484
1434.792969	22082.822266
1433.760742	21773.035156
1432.728516	21509.388672
1431.696289	21727.664063
1430.663086	21229.328125
1429.629883	21053.082031
1428.596680	21135.810547
1427.563477	21061.259766
1426.530273	20764.220703
1425.496094	20996.880859
1424.461914	20668.546875
1423.427734	20214.656250
1422.393555	20708.279297
1421.358398	20314.970703
1420.323242	20289.001953
1419.288086	20248.552734
1418.252930	20002.873047
1417.217773	20201.498047
1416.181641	19970.410156
1415.145508	20277.546875
1414.109375	20290.212891
1413.073242	20095.429688
1412.036133	20549.453125
1411.000000	20569.285156
1409.962891	20367.330078
1408.924805	20664.351563
1407.887695	20402.218750
1406.849609	20643.697266
1405.812500	21072.945313
1404.773438	21364.751953
1403.735352	21685.326172
1402.697266	21777.091797
1401.658203	22176.861328
1400.619141	22386.382813
1399.580078	22526.050781
1398.540039	22574.267578
1397.500977	22569.558594
1396.460938	22528.791016
1395.420898	22899.052734
1394.380859	22591.488281
1393.339844	22735.736328
1392.298828	22502.792969
1391.257813	22344.396484
1390.216797	22560.634766
1389.175781	22162.230469
1388.133789	22287.208984
1387.091797	22241.765625
1386.049805	22385.865234
1385.007813	22613.853516
1383.964844	22712.250000
1382.922852	22374.244141
1381.879883	22834.605469
1380.835938	23230.064453
1379.792969	23062.279297
1378.749023	23421.589844
1377.706055	23546.031250
1376.661133	23615.343750
1375.617188	23904.878906
1374.573242	23880.734375
1373.528320	23902.068359
1372.483398	24107.619141
1371.438477	24138.458984
1370.392578	24116.671875
1369.347656	24135.539063
1368.301758	24214.162109
1367.255859	24022.671875
1366.208984	24323.513672
1365.163086	24325.591797
1364.116211	24146.136719
1363.069336	24260.488281
1362.022461	24424.927734
1360.974609	24333.880859
1359.927734	24462.435547
1358.879883	24531.283203
1357.832031	24726.537109
1356.783203	24931.246094
1355.735352	24935.562500
1354.686523	25121.068359
1353.637695	25420.904297
1352.588867	25332.169922
1351.539063	25824.822266
1350.490234	26310.121094
1349.440430	26409.396484
1348.390625	27277.720703
1347.339844	27579.097656
1346.290039	28113.595703
1345.239258	28462.261719
1344.188477	28832.189453
1343.137695	29377.974609
1342.085938	29923.531250
1341.034180	30183.542969
1339.982422	30148.685547
1338.930664	30660.458984
1337.878906	30896.386719
1336.826172	30956.417969
1335.773438	31253.933594
1334.720703	31176.134766
1333.667969	30870.451172
1332.614258	30773.771484
1331.561523	30356.761719
1330.507813	30143.968750
1329.453125	29959.728516
1328.399414	29635.638672
1327.344727	29242.919922
1326.290039	28907.259766
1325.235352	28661.802734
1324.180664	28233.986328
1323.125000	27931.910156
1322.070313	27968.673828
1321.014648	27564.947266
1319.958008	27731.986328
1318.902344	27600.695313
1317.845703	27538.089844
1316.789063	27099.294922
1315.732422	26793.156250
1314.675781	26394.906250
1313.618164	26316.046875
1312.560547	25584.714844
1311.502930	25342.964844
1310.445313	24940.619141
1309.386719	24205.310547
1308.329102	23737.230469
1307.270508	23557.468750
1306.210938	23129.857422
1305.152344	22572.591797
1304.092773	22556.033203
1303.033203	22258.681641
1301.973633	22065.255859
1300.914063	21935.593750
1299.853516	21754.105469
1298.792969	21751.876953
1297.732422	21822.716797
1296.671875	22067.921875
1295.611328	21603.810547
1294.549805	21573.339844
1293.488281	21677.125000
1292.426758	21797.347656
1291.364258	21472.576172
1290.302734	21519.824219
1289.240234	21647.058594
1288.177734	21418.980469
1287.114258	21452.091797
1286.051758	21529.869141
1284.988281	21508.861328
1283.924805	21419.691406
1282.861328	21415.164063
1281.796875	21499.925781
1280.732422	21295.697266
1279.667969	21152.619141
1278.603516	21723.462891
1277.539063	21359.664063
1276.473633	21629.773438
1275.408203	21974.861328
1274.342773	21885.746094
1273.277344	21799.013672
1272.210938	21691.208984
1271.145508	21836.679688
1270.079102	21989.121094
1269.011719	21944.621094
1267.945313	21986.839844
1266.877930	21977.496094
1265.810547	21930.679688
1264.743164	21492.804688
1263.674805	21240.074219
1262.607422	21008.515625
1261.539063	20947.894531
1260.470703	20906.017578
1259.401367	20644.261719
1258.333008	20279.708984
1257.263672	20266.052734
1256.194336	20175.255859
1255.125000	19925.556641
1254.054688	19753.078125
1252.985352	19762.902344
1251.915039	19363.953125
1250.843750	19067.925781
1249.773438	19257.667969
1248.702148	19020.144531
1247.630859	19100.123047
1246.559570	18781.064453
1245.488281	18655.765625
1244.416016	18614.482422
1243.343750	18477.609375
1242.271484	18832.710938
1241.199219	18486.070313
1240.125977	18395.914063
1239.053711	18385.011719
1237.980469	18283.267578
1236.906250	18311.982422
1235.833008	18240.562500
1234.758789	18383.337891
1233.684570	18316.583984
1232.610352	18233.570313
1231.536133	18369.271484
1230.460938	18123.464844
1229.385742	18356.796875
1228.310547	18029.722656
1227.235352	18237.402344
1226.159180	18361.332031
1225.083008	18522.382813
1224.006836	18499.849609
1222.930664	18602.738281
1221.853516	18459.455078
1220.777344	18573.910156
1219.700195	18748.662109
1218.622070	18788.750000
1217.544922	18921.619141
1216.466797	19091.541016
1215.388672	19272.982422
1214.310547	19261.912109
1213.232422	19427.011719
1212.153320	19487.753906
1211.074219	19451.152344
1209.995117	19671.697266
1208.916016	19875.933594
1207.835938	19781.380859
1206.755859	19885.958984
1205.675781	19992.804688
1204.595703	19479.443359
1203.514648	19595.582031
1202.434570	19503.494141
1201.353516	19564.074219
1200.271484	19520.582031
1199.190430	19391.582031
1198.108398	19197.923828
1197.026367	19140.671875
1195.944336	19155.054688
1194.862305	18633.607422
1193.779297	18816.652344
1192.696289	18747.980469
1191.613281	18575.472656
1190.530273	18093.822266
1189.446289	18050.722656
1188.362305	18083.757813
1187.278320	18089.105469
1186.194336	17995.306641
1185.109375	17807.039063
1184.024414	17883.880859
1182.939453	17665.759766
1181.854492	17668.878906
1180.768555	17496.957031
1179.683594	17350.437500
1178.597656	17579.228516
1177.510742	17471.878906
1176.424805	17281.732422
1175.337891	17333.236328
1174.250977	17476.722656
1173.164063	17431.572266
1172.077148	17437.023438
1170.989258	17414.884766
1169.901367	17280.142578
1168.813477	17398.205078
1167.724609	17422.029297
1166.636719	17434.359375
1165.547852	17524.751953
1164.458984	17784.990234
1163.369141	17824.771484
1162.280273	17644.238281
1161.190430	17842.333984
1160.100586	17788.027344
1159.010742	17894.273438
1157.919922	17833.099609
1156.829102	17927.824219
1155.738281	17946.878906
1154.647461	18153.806641
1153.555664	17881.871094
1152.464844	18100.173828
1151.373047	17867.291016
1150.280273	17851.990234
1149.188477	17816.095703
1148.095703	17622.320313
1147.002930	17552.171875
1145.910156	17747.380859
1144.817383	17359.359375
1143.723633	17488.218750
1142.629883	17367.863281
1141.536133	17492.091797
1140.441406	17319.234375
1139.347656	17251.529297
1138.252930	17026.265625
1137.158203	17323.990234
1136.062500	17333.941406
1134.967773	16978.705078
1133.872070	16970.468750
1132.776367	17074.023438
1131.679688	17017.869141
1130.583984	17128.207031
1129.487305	17033.302734
1128.390625	17136.748047
1127.292969	17251.542969
1126.196289	17140.720703
1125.098633	17203.068359
1124.000977	16891.884766
1122.903320	17209.275391
1121.804688	17205.546875
1120.706055	17012.910156
1119.607422	17025.150391
1118.508789	16964.583984
1117.409180	16990.474609
1116.310547	16986.789063
1115.210938	17128.607422
1114.110352	16722.566406
1113.010742	16905.285156
1111.910156	16901.615234
1110.809570	17031.964844
1109.708984	16898.818359
1108.607422	16634.035156
1107.506836	16664.472656
1106.405273	16883.267578
1105.303711	16632.271484
1104.201172	16494.808594
1103.098633	16318.849609
1101.996094	16496.708984
1100.893555	16379.765625
1099.791016	16385.269531
1098.687500	16159.625977
1097.583984	16183.296875
1096.480469	16616.943359
1095.376953	16384.599609
1094.272461	16731.972656
1093.167969	16592.511719
1092.063477	16704.318359
1090.958008	16854.541016
1089.853516	16669.894531
1088.748047	16948.970703
1087.642578	16759.859375
1086.536133	17086.267578
1085.430664	17317.601563
1084.324219	17456.185547
1083.217773	17558.560547
1082.110352	17961.298828
1081.003906	17966.414063
1079.896484	17772.843750
1078.789063	18276.841797
1077.680664	17839.556641
1076.573242	18295.937500
1075.464844	18179.152344
1074.356445	18256.371094
1073.247070	18017.886719
1072.138672	18007.187500
1071.029297	17998.744141
1069.919922	17733.425781
1068.809570	17835.431641
1067.700195	17511.703125
1066.589844	17408.792969
1065.479492	17418.492188
1064.368164	17099.564453
1063.257813	16911.294922
1062.146484	16932.341797
1061.035156	16685.705078
1059.922852	16679.802734
1058.811523	16646.919922
1057.699219	16539.871094
1056.586914	16518.269531
1055.473633	16296.700195
1054.361328	16531.248047
1053.248047	16372.656250
1052.134766	16140.034180
1051.021484	16073.636719
1049.907227	16067.867188
1048.792969	16288.735352
1047.678711	16076.521484
1046.564453	16014.676758
1045.449219	16038.071289
1044.333984	16068.179688
1043.218750	16073.617188
1042.103516	15971.484375
1040.987305	16180.822266
1039.871094	16150.387695
1038.754883	16108.767578
1037.638672	15944.018555
1036.521484	16101.686523
1035.404297	16198.858398
1034.287109	15888.752930
1033.169922	16023.956055
1032.051758	16027.140625
1030.933594	16110.820313
1029.815430	16219.053711
1028.697266	16061.263672
1027.578125	15988.455078
1026.458984	16116.746094
1025.339844	15918.874023
1024.220703	16011.391602
1023.100586	16175.310547
1021.980469	16113.710938
1020.860352	15891.459961
1019.740234	16128.919922
1018.619141	15969.218750
1017.498047	16146.339844
1016.376953	16093.726563
1015.255859	16023.300781
1014.133789	15943.990234
1013.011719	15813.465820
1011.889648	15823.341797
1010.767578	15917.845703
1009.644531	16056.840820
1008.521484	16104.498047
1007.398438	15909.528320
1006.274414	15883.760742
1005.151367	15815.733398
1004.027344	15903.432617
1002.902344	15884.351563
1001.778320	16054.254883
1000.653320	15995.135742
999.528320	16122.713867
998.403320	15952.512695
997.278320	16051.163086
996.152344	16054.273438
995.026367	16188.380859
993.900391	15980.573242
992.773438	16141.265625
991.646484	16317.418945
990.519531	16355.953125
989.392578	16365.637695
988.265625	16466.228516
987.137695	16500.265625
986.009766	16518.773438
984.881836	16716.757813
983.752930	16478.218750
982.624023	16729.279297
981.495117	16703.425781
980.366211	16367.628906
979.236328	16370.637695
978.106445	16603.791016
976.976563	16155.400391
975.846680	16123.058594
974.715820	16088.517578
973.585938	16162.329102
972.454102	15732.113281
971.323242	15927.518555
970.191406	15733.960938
969.060547	15706.165039
967.927734	15711.508789
966.795898	15897.907227
965.663086	15795.032227
964.530273	15753.999023
963.397461	15697.537109
962.264648	15795.524414
961.130859	15655.263672
959.997070	15949.466797
958.863281	16064.965820
957.729492	15880.651367
956.594727	15985.092773
955.459961	15946.282227
954.325195	15687.223633
953.189453	15796.038086
952.053711	15642.805664
950.917969	15951.885742
949.782227	15585.217773
948.646484	15777.559570
947.509766	15778.440430
946.373047	15715.542969
945.235352	15815.376953
944.098633	15910.768555
942.960938	15828.099609
941.823242	15703.717773
940.685547	15772.706055
939.546875	15951.473633
938.408203	15734.921875
937.269531	15909.225586
936.129883	16015.411133
934.991211	16011.833008
933.851563	16001.673828
932.711914	16149.436523
931.571289	16292.746094
930.431641	16256.217773
929.291016	16195.594727
928.149414	16187.589844
927.008789	16315.420898
925.867188	16278.915039
924.725586	16154.828125
923.583984	16155.590820
922.441406	15922.138672
921.299805	16089.271484
920.157227	15726.847656
919.013672	15675.201172
917.871094	15671.690430
916.727539	15628.822266
915.583984	15564.113281
914.439453	15427.310547
913.295898	15253.422852
912.151367	15442.239258
911.006836	15224.744141
909.861328	15297.752930
908.716797	15215.731445
907.571289	15415.294922
906.424805	15431.473633
905.279297	15336.384766
904.132813	15572.860352
902.986328	15211.749023
901.839844	15081.887695
900.692383	15257.228516
899.545898	15303.920898
898.398438	15396.341797
897.250000	15353.676758
896.102539	15241.343750
894.954102	15451.279297
893.805664	15225.786133
892.656250	15146.196289
891.507813	15406.047852
890.358398	15187.238281
889.208984	14920.682617
888.058594	15341.297852
886.908203	15283.502930
885.758789	15173.574219
884.607422	15076.729492
883.457031	14943.000000
882.305664	15033.021484
881.154297	15207.680664
880.002930	15275.891602
878.850586	15107.506836
877.698242	15375.330078
876.545898	15111.545898
875.393555	15073.437500
874.240234	14933.433594
873.086914	15025.452148
871.933594	15026.398438
870.780273	14936.333984
869.625977	15078.113281
868.471680	14897.107422
867.317383	14813.625000
866.162109	15020.280273
865.007813	14900.009766
863.852539	14734.349609
862.696289	14843.522461
861.541016	14972.111328
860.384766	14934.129883
859.228516	14837.791016
858.072266	14797.692383
856.915039	14753.289063
855.757813	14579.272461
854.600586	14763.900391
853.442383	14656.904297
852.285156	14871.655273
851.126953	14825.121094
849.968750	14914.565430
848.809570	14647.963867
847.650391	15022.144531
846.491211	14781.515625
845.332031	14808.356445
844.171875	14636.863281
843.012695	14627.083984
841.851563	14787.527344
840.691406	14698.010742
839.530273	14989.738281
838.369141	14656.901367
837.208008	14892.532227
836.046875	14738.500977
834.884766	14582.386719
833.722656	14764.089844
832.560547	14829.566406
831.397461	14774.597656
830.234375	14762.647461
829.071289	14563.711914
827.908203	14839.754883
826.744141	14703.191406
825.580078	14815.838867
824.416016	14801.739258
823.251953	14725.385742
822.086914	14752.091797
820.921875	14791.660156
819.756836	14683.175781
818.590820	14639.087891
817.425781	14710.817383
816.259766	14722.483398
815.092773	14755.576172
813.926758	14685.791016
812.759766	14573.186523
811.592773	14732.665039
810.424805	14714.325195
809.257813	14865.132813
808.089844	14609.168945
806.920898	14635.806641
805.752930	14476.289063
804.583984	14505.082031
803.415039	14518.889648
802.246094	14357.365234
801.076172	14651.226563
799.906250	14658.576172
798.736328	14627.462891
797.566406	14730.939453
796.395508	14693.414063
795.224609	14711.418945
794.053711	14921.537109
792.881836	14726.058594
791.710938	14833.656250
790.538086	14962.536133
789.366211	15257.710938
788.194336	15160.413086
787.021484	15156.957031
785.848633	15445.487305
784.674805	15510.151367
783.500977	15455.485352
782.327148	15522.244141
781.153320	15288.732422
779.979492	15223.506836
778.804688	15058.276367
777.629883	14991.001953
776.454102	15081.185547
775.279297	14828.892578
774.103516	14825.506836
772.927734	15004.952148
771.750977	15067.415039
770.575195	15151.096680
769.398438	15052.033203
768.220703	15352.327148
767.043945	15457.118164
765.866211	15610.690430
764.688477	15840.602539
763.510742	15705.413086
762.332031	15943.682617
761.153320	16188.205078
759.974609	16610.746094
758.794922	17067.013672
757.616211	17679.923828
756.436523	18684.597656
755.255859	19792.625000
754.076172	21048.416016
752.895508	22858.468750
751.714844	24917.521484
750.533203	26884.611328
749.352539	29263.466797
748.170898	31114.406250
746.988281	32573.167969
745.806641	33523.707031
744.624023	33427.226563
743.441406	33214.527344
742.258789	32433.435547
741.075195	31356.896484
739.891602	30665.302734
738.708008	30229.560547
737.523438	29948.148438
736.339844	29455.769531
735.155273	28855.984375
733.969727	28220.599609
732.785156	27328.152344
731.599609	25546.119141
730.414063	24456.490234
729.227539	23152.339844
728.041992	21707.583984
726.855469	20265.593750
725.667969	19068.626953
724.481445	18105.982422
723.293945	17326.966797
722.106445	16773.552734
720.918945	16245.648438
719.730469	15985.211914
718.541992	15764.863281
717.353516	15540.408203
716.164063	15416.984375
714.975586	15110.723633
713.786133	15149.286133
712.595703	14700.339844
711.406250	14789.394531
710.215820	14844.803711
709.025391	14940.082031
707.833984	14800.191406
706.642578	14748.515625
705.451172	14784.992188
704.259766	14647.329102
703.068359	14826.432617
701.875977	14843.991211
700.683594	15182.292969
699.490234	15164.128906
698.297852	15554.585938
697.104492	15965.811523
695.910156	16251.176758
694.716797	16925.896484
693.522461	17179.503906
692.328125	17278.109375
691.132813	17295.056641
689.938477	16927.050781
688.743164	16858.314453
687.547852	16657.865234
686.351563	16290.257813
685.155273	16125.563477
683.958984	15946.315430
682.762695	15714.919922
681.565430	15479.451172
680.368164	15394.443359
679.170898	15413.860352
677.973633	15199.494141
676.775391	15360.846680
675.577148	15363.564453
674.378906	15230.701172
673.179688	15233.445313
671.980469	15058.973633
670.781250	15086.766602
669.581055	14995.762695
668.381836	14750.626953
667.181641	14436.866211
665.980469	14781.306641
664.780273	14546.796875
663.579102	14582.988281
662.377930	14535.921875
661.175781	14634.513672
659.973633	14468.891602
658.771484	14459.312500
657.569336	14776.156250
656.367188	14531.625000
655.164063	14642.567383
653.960938	14900.971680
652.756836	15022.162109
651.552734	14970.928711
650.348633	15183.397461
649.144531	15366.707031
647.939453	15545.780273
646.735352	15822.284180
645.529297	15824.851563
644.324219	15881.336914
643.118164	15956.454102
641.912109	15772.427734
640.706055	15634.077148
639.499023	15497.861328
638.292969	15527.421875
637.084961	15091.004883
635.877930	14959.146484
634.669922	14814.928711
633.461914	14672.845703
632.253906	14574.277344
631.044922	14649.512695
629.836914	14453.792969
628.626953	14256.095703
627.417969	14391.295898
626.208008	14367.300781
624.998047	14401.167969
623.788086	14232.581055
622.577148	14347.004883
621.366211	14384.980469
620.155273	14276.374023
618.944336	14182.264648
617.732422	14158.349609
616.520508	14188.078125
615.308594	13920.814453
614.095703	14018.623047
612.882813	13953.536133
611.669922	14024.499023
610.457031	13813.148438
609.243164	14048.905273
608.029297	13955.035156
606.815430	13935.331055
605.600586	13973.274414
604.385742	14044.128906
603.170898	13833.060547
601.955078	14031.452148
600.740234	14077.561523
599.524414	14074.299805
598.307617	14188.212891
597.091797	14043.117188
595.875000	14027.536133
594.658203	14227.655273
593.440430	14154.530273
592.222656	14227.222656
591.004883	14117.179688
589.787109	14101.593750
588.568359	13796.702148
587.349609	14045.825195
586.130859	13589.318359
584.912109	13832.220703
583.692383	13710.116211
582.472656	13704.888672
581.251953	13841.043945
580.032227	13817.349609
578.811523	13896.068359
577.589844	14177.460938
576.369141	14301.093750
575.147461	14211.819336
573.925781	14366.078125
572.703125	14389.340820
571.481445	14790.955078
570.258789	15006.311523
569.035156	15145.928711
567.812500	15301.831055
566.588867	15320.758789
565.365234	15570.516602
564.140625	15787.480469
562.916992	15771.566406
561.692383	15602.552734
560.466797	15696.898438
559.242188	15578.990234
558.016602	15255.096680
556.791016	15200.569336
555.564453	15211.315430
554.337891	14791.916016
553.111328	14621.359375
551.884766	14155.423828
550.657227	14164.362305
549.429688	14022.581055
548.202148	13866.610352
546.974609	13745.319336
545.746094	13909.021484
544.517578	13883.410156
543.288086	13859.844727
542.058594	13982.726563
540.829102	13845.278320
539.599609	13752.616211
538.370117	13893.727539
537.139648	13990.068359
535.909180	13613.026367
534.677734	13585.494141
533.446289	13696.050781
532.214844	13889.789063
530.983398	13979.926758
529.750977	13721.009766
528.519531	13788.827148
527.286133	13556.440430
526.053711	13701.316406
524.820313	13815.716797
523.586914	13676.714844
522.353516	13716.091797
521.119141	13879.025391
519.884766	13802.889648
518.650391	13763.237305
517.415039	13780.285156
516.179688	13781.133789
514.944336	13624.148438
513.708984	13649.307617
