#Wave		#Intensity
1585.210938	2098.022461
1584.209961	2103.017822
1583.208984	2030.165405
1582.208008	2032.241333
1581.206055	2154.128906
1580.204102	2108.762207
1579.202148	2128.285889
1578.200195	2095.416016
1577.198242	2027.643188
1576.195313	2169.353271
1575.192383	2124.030029
1574.189453	2158.484619
1573.186523	1978.616455
1572.182617	2092.813232
1571.178711	2087.397705
1570.174805	2101.907959
1569.170898	2071.593994
1568.166992	2125.931152
1567.162109	2090.646973
1566.158203	2060.353760
1565.153320	2042.512207
1564.147461	2029.652588
1563.142578	2061.560791
1562.136719	2033.784668
1561.130859	2080.593262
1560.125000	2035.427734
1559.119141	1995.250366
1558.113281	2094.206543
1557.106445	2024.228760
1556.099609	1994.011230
1555.092773	2060.630859
1554.084961	2000.632080
1553.078125	2052.332764
1552.070313	2079.200439
1551.062500	1991.947754
1550.054688	2021.296753
1549.045898	2070.470459
1548.038086	2099.790771
1547.029297	1982.862915
1546.020508	2051.838135
1545.011719	2036.548096
1544.001953	1956.861084
1542.992188	1998.556885
1541.982422	2045.187378
1540.972656	2037.337524
1539.962891	2036.915649
1538.952148	2014.223633
1537.942383	2023.702515
1536.931641	2003.495850
1535.919922	2047.593994
1534.909180	2143.594727
1533.897461	1955.285278
1532.886719	2029.022583
1531.874023	2053.311523
1530.862305	2001.008301
1529.850586	2022.822876
1528.837891	2034.750854
1527.825195	1975.077148
1526.812500	2028.971558
1525.799805	2082.843506
1524.786133	1983.719849
1523.772461	2003.043457
1522.758789	2103.746582
1521.745117	2049.063965
1520.731445	2060.965820
1519.716797	2077.792480
1518.702148	2015.755981
1517.687500	2069.540771
1516.672852	2098.670898
1515.657227	2036.668457
1514.642578	2095.339600
1513.626953	2067.826904
1512.610352	2042.786865
1511.594727	2079.273926
1510.579102	2081.303467
1509.562500	1975.107056
1508.545898	2070.604736
1507.529297	2035.755005
1506.511719	2027.958862
1505.494141	1966.098267
1504.477539	2061.518555
1503.458984	2009.502686
1502.441406	2011.542480
1501.423828	2092.160156
1500.405273	2037.714966
1499.386719	2083.929688
1498.368164	2061.411377
1497.348633	2090.427002
1496.330078	2058.104248
1495.310547	1974.291504
1494.291016	2096.483887
1493.271484	1988.182495
1492.250977	2085.811035
1491.231445	1962.853516
1490.210938	2013.896729
1489.190430	2072.267090
1488.168945	2017.959961
1487.148438	2019.990234
1486.126953	2056.291016
1485.105469	2080.339355
1484.083984	2067.673340
1483.061523	2055.012451
1482.040039	2096.167480
1481.017578	2063.942383
1479.995117	2068.404297
1478.971680	2019.087036
1477.949219	2101.761230
1476.925781	1971.825195
1475.902344	2037.374512
1474.878906	2049.163818
1473.855469	2090.250977
1472.831055	2065.403564
1471.806641	2116.233643
1470.782227	2057.225830
1469.757813	2188.551514
1468.733398	2146.628418
1467.708008	2077.895508
1466.682617	2143.299561
1465.657227	2077.033447
1464.631836	2259.401855
1463.605469	2129.781738
1462.579102	2122.030762
1461.552734	2180.049805
1460.526367	2126.020752
1459.500000	2101.231445
1458.472656	2095.926758
1457.445313	2127.130859
1456.417969	2199.687988
1455.390625	2272.214600
1454.362305	2198.774658
1453.334961	2181.295898
1452.306641	2185.705322
1451.277344	2153.651611
1450.249023	2192.088623
1449.219727	2206.211914
1448.191406	2203.324463
1447.162109	2212.581787
1446.131836	2168.413818
1445.102539	2226.229004
1444.072266	2216.057617
1443.041992	2244.717773
1442.011719	2273.365967
1440.981445	2236.508057
1439.950195	2192.389404
1438.918945	2211.331543
1437.887695	2227.841309
1436.856445	2239.496826
1435.825195	2207.529785
1434.792969	2153.771729
1433.760742	2196.923340
1432.728516	2133.502686
1431.696289	2304.962891
1430.663086	2171.346436
1429.629883	2182.995605
1428.596680	2197.059814
1427.563477	2111.931885
1426.530273	2111.492676
1425.496094	2011.908936
1424.461914	2088.855225
1423.427734	2119.843750
1422.393555	2085.569580
1421.358398	2133.458496
1420.323242	2048.467041
1419.288086	2132.570557
1418.252930	2001.736206
1417.217773	2182.379883
1416.181641	2061.243652
1415.145508	2039.096436
1414.109375	2012.132935
1413.073242	2035.835205
1412.036133	2134.287842
1411.000000	2018.109497
1409.962891	2077.954590
1408.924805	2120.903809
1407.887695	2093.956299
1406.849609	2105.565674
1405.812500	2093.083740
1404.773438	2176.931396
1403.735352	2089.803955
1402.697266	2091.775391
1401.658203	2067.273438
1400.619141	2129.401123
1399.580078	2165.041260
1398.540039	2116.487793
1397.500977	2039.099365
1396.460938	2192.536377
1395.420898	2067.092041
1394.380859	2117.125977
1393.339844	2037.398682
1392.298828	2077.809326
1391.257813	2103.793213
1390.216797	2103.354248
1389.175781	2119.719482
1388.133789	2071.275146
1387.091797	2087.639893
1386.049805	2039.222534
1385.007813	2033.999634
1383.964844	2139.090576
1382.922852	2081.102051
1381.879883	2159.770996
1380.835938	2221.631104
1379.792969	2125.323730
1378.749023	2100.924072
1377.706055	2153.176758
1376.661133	2109.624512
1375.617188	2066.090332
1374.573242	2060.871338
1373.528320	2172.915283
1372.483398	2107.861328
1371.438477	2040.442627
1370.392578	2092.630615
1369.347656	2137.623535
1368.301758	2125.223633
1367.255859	2210.822021
1366.208984	2124.334717
1365.163086	2107.166748
1364.116211	2082.840088
1363.069336	2101.508789
1362.022461	2098.681641
1360.974609	2145.983887
1359.927734	2081.096924
1358.879883	2087.819580
1357.832031	2111.238281
1356.783203	2122.721680
1355.735352	2096.046631
1354.686523	2193.354980
1353.637695	2109.470215
1352.588867	2137.625244
1351.539063	2134.794922
1350.490234	2108.144531
1349.440430	2188.676758
1348.390625	2178.693604
1347.339844	2216.326416
1346.290039	2165.879883
1345.239258	2270.127686
1344.188477	2319.612549
1343.137695	2262.039795
1342.085938	2268.699707
1341.034180	2265.846191
1339.982422	2405.619385
1338.930664	2298.167725
1337.878906	2376.096680
1336.826172	2425.485596
1335.773438	2405.975586
1334.720703	2291.489746
1333.667969	2438.202881
1332.614258	2356.988525
1331.561523	2351.747314
1330.507813	2296.683350
1329.453125	2360.247803
1328.399414	2502.048584
1327.344727	2406.678467
1326.290039	2439.361328
1325.235352	2384.335938
1324.180664	2421.748535
1323.125000	2466.252686
1322.070313	2361.514893
1321.014648	2401.276367
1319.958008	2377.094971
1318.902344	2355.291016
1317.845703	2371.361816
1316.789063	2314.075684
1315.732422	2304.126221
1314.675781	2301.276367
1313.618164	2298.427246
1312.560547	2321.584717
1311.502930	2349.459717
1310.445313	2372.596436
1309.386719	2279.953613
1308.329102	2303.094727
1307.270508	2281.354736
1306.210938	2273.790771
1305.152344	2327.606689
1304.092773	2324.755859
1303.033203	2232.239258
1301.973633	2302.543457
1300.914063	2304.416748
1299.853516	2261.483887
1298.792969	2244.503174
1297.732422	2260.530029
1296.671875	2250.626465
1295.611328	2408.015625
1294.549805	2325.058594
1293.488281	2293.950439
1292.426758	2154.539551
1291.364258	2201.168701
1290.302734	2177.166992
1289.240234	2176.707275
1288.177734	2204.479980
1287.114258	2220.479736
1286.051758	2137.700928
1284.988281	2198.380615
1283.924805	2226.124512
1282.861328	2232.704834
1281.796875	2248.680908
1280.732422	2140.141357
1279.667969	2142.037354
1278.603516	2207.334961
1277.539063	2159.913330
1276.473633	2175.887207
1275.408203	2194.200684
1274.342773	2015.421997
1273.277344	2197.963623
1272.210938	2169.355225
1271.145508	2171.240723
1270.079102	2168.436768
1269.011719	2081.258545
1267.945313	2118.310059
1266.877930	2117.861328
1265.810547	2140.835205
1264.743164	2098.229736
1263.674805	2095.443848
1262.607422	2057.547119
1261.539063	2064.131836
1260.470703	2140.907227
1259.401367	2084.310059
1258.333008	2076.851807
1257.263672	2109.147461
1256.194336	2181.171875
1255.125000	2126.950928
1254.054688	2082.100098
1252.985352	2032.595459
1251.915039	2125.596924
1250.843750	2092.450928
1249.773438	2110.685303
1248.702148	2117.239990
1247.630859	2147.130127
1246.559570	2114.007080
1245.488281	2204.538818
1244.416016	2134.099854
1243.343750	2175.619629
1242.271484	2126.198730
1241.199219	2072.136719
1240.125977	2164.910645
1239.053711	2101.543701
1237.980469	2161.660400
1236.906250	2098.320801
1235.833008	2032.679443
1234.758789	2074.148926
1233.684570	2064.397705
1232.610352	2070.938965
1231.536133	2226.366943
1230.460938	2174.722900
1229.385742	2109.147949
1228.310547	2169.146484
1227.235352	2119.871582
1226.159180	2175.193848
1225.083008	2118.968018
1224.006836	2072.057617
1222.930664	2157.545898
1221.853516	2050.276611
1220.777344	2070.732178
1219.700195	2167.770508
1218.622070	2102.335205
1217.544922	2074.047119
1216.466797	2094.479492
1215.388672	2119.541260
1214.310547	2188.643066
1213.232422	2083.866455
1212.153320	2115.866211
1211.074219	2166.387939
1209.995117	2135.810791
1208.916016	2179.358398
1207.835938	2132.582520
1206.755859	2104.346436
1205.675781	2161.759521
1204.595703	2108.074707
1203.514648	2172.402832
1202.434570	2090.981934
1201.353516	2125.222656
1200.271484	2080.839111
1199.190430	2089.639893
1198.108398	2086.881592
1197.026367	2058.708252
1195.944336	2099.848633
1194.862305	2129.423340
1193.779297	2082.785645
1192.696289	2080.030762
1191.613281	2095.741699
1190.530273	2074.524414
1189.446289	2110.993164
1188.362305	2110.540771
1187.278320	2038.598877
1186.194336	2105.024414
1185.109375	2072.301270
1184.024414	2025.764282
1182.939453	2080.628662
1181.854492	2096.307617
1180.768555	2033.672852
1179.683594	2132.250000
1178.597656	2175.533203
1177.510742	2080.697998
1176.424805	2128.575439
1175.337891	2052.196289
1174.250977	2040.254395
1173.164063	2078.910400
1172.077148	2066.967773
1170.989258	2078.016846
1169.901367	2070.675537
1168.813477	2040.359985
1167.724609	2101.945801
1166.636719	2062.449463
1165.547852	2103.337646
1164.458984	2107.476563
1163.369141	2097.842041
1162.280273	2060.674561
1161.190430	2080.878906
1160.100586	2043.730835
1159.010742	2130.434326
1157.919922	2063.485352
1156.829102	2127.224121
1155.738281	2083.222168
1154.647461	2050.695068
1153.555664	2155.629150
1152.464844	2063.552734
1151.373047	2058.528076
1150.280273	2094.712891
1149.188477	2128.593262
1148.095703	2027.447876
1147.002930	2129.962402
1145.910156	2074.606689
1144.817383	2087.879883
1143.723633	2213.177734
1142.629883	2066.405518
1141.536133	2100.239502
1140.441406	2072.367432
1139.347656	2138.166260
1138.252930	2103.446045
1137.158203	2153.225586
1136.062500	2086.556396
1134.967773	2104.364258
1133.872070	2170.084229
1132.776367	2208.398682
1131.679688	2173.707031
1130.583984	2182.358398
1129.487305	2216.084961
1128.390625	2185.972656
1127.292969	2251.588379
1126.196289	2305.783447
1125.098633	2280.226563
1124.000977	2222.796143
1122.903320	2199.544922
1121.804688	2094.350830
1120.706055	2180.383789
1119.607422	2091.167236
1118.508789	2152.138428
1117.409180	2138.024902
1116.310547	2101.177002
1115.210938	2148.464844
1114.110352	2100.265381
1113.010742	2117.989746
1111.910156	2144.794189
1110.809570	2089.811768
1109.708984	2155.218018
1108.607422	2073.010254
1107.506836	2197.413086
1106.405273	2122.040039
1105.303711	2058.044922
1104.201172	2127.923340
1103.098633	2109.316162
1101.996094	2099.787109
1100.893555	2171.877686
1099.791016	2221.270508
1098.687500	2087.086670
1097.583984	2138.741699
1096.480469	2092.973877
1095.376953	2153.663330
1094.272461	2203.005371
1093.167969	2191.207520
1092.063477	2138.677734
1090.958008	2126.898682
1089.853516	2106.075684
1088.748047	2137.280273
1087.642578	2170.731934
1086.536133	2145.391357
1085.430664	2133.622559
1084.324219	2108.300537
1083.217773	2168.839355
1082.110352	2066.723877
1081.003906	2179.184082
1079.896484	2205.801270
1078.789063	2178.232910
1077.680664	2161.960205
1076.573242	2111.850586
1075.464844	2221.921631
1074.356445	2110.928223
1073.247070	2205.167480
1072.138672	2215.957031
1071.029297	2186.173340
1069.919922	2210.481689
1068.809570	2153.678467
1067.700195	2157.712158
1066.589844	2213.535645
1065.479492	2204.045898
1064.368164	2239.577148
1063.257813	2178.327881
1062.146484	2162.102051
1061.035156	2188.621094
1059.922852	2170.150879
1058.811523	2225.884766
1057.699219	2207.414307
1056.586914	2231.651855
1055.473633	2132.299561
1054.361328	2190.238525
1053.248047	2165.053467
1052.134766	2112.934326
1051.021484	2137.165039
1049.907227	2141.185303
1048.792969	2098.080811
1047.678711	2214.279541
1046.564453	2146.504883
1045.449219	2226.762451
1044.333984	2170.224365
1043.218750	2057.674072
1042.103516	2113.246826
1040.987305	2157.592285
1039.871094	2136.958496
1038.754883	2102.896240
1037.638672	2185.277588
1036.521484	2104.210449
1035.404297	2224.601318
1034.287109	2112.235352
1033.169922	2136.378174
1032.051758	2111.306152
1030.933594	2095.189209
1029.815430	2228.862305
1028.697266	2170.259766
1027.578125	2122.855713
1026.458984	2198.347412
1025.339844	2222.432861
1024.220703	2213.010986
1023.100586	2129.916504
1021.980469	2160.697021
1020.860352	2160.220947
1019.740234	2175.362793
1018.619141	2168.191162
1017.498047	2158.792480
1016.376953	2069.129639
1015.255859	2088.735840
1014.133789	2177.422363
1013.011719	2112.324219
1011.889648	2042.799438
1010.767578	2093.574219
1009.644531	2184.407227
1008.521484	2119.364502
1007.398438	2154.508057
1006.274414	2093.950439
1005.151367	2146.881836
1004.027344	2179.771240
1002.902344	2074.772461
1001.778320	2167.691406
1000.653320	2051.627441
999.528320	2233.401367
998.403320	2115.152100
997.278320	2187.987305
996.152344	2156.411621
995.026367	2135.951416
993.900391	2086.642334
992.773438	2163.857422
991.646484	2209.974121
990.519531	2125.187012
989.392578	2140.241211
988.265625	2130.897461
987.137695	2183.630615
986.009766	2169.848145
984.881836	2191.526123
983.752930	2078.054443
982.624023	2152.900879
981.495117	2190.068604
980.366211	2123.164551
979.236328	2178.029785
978.106445	2226.231201
976.976563	2185.912842
975.846680	2205.335205
974.715820	2087.637207
973.585938	2100.439453
972.454102	2126.499023
971.323242	2152.546631
970.191406	2087.992432
969.060547	2149.381104
967.927734	2109.149658
966.795898	2099.848633
965.663086	2178.853516
964.530273	2147.469971
963.397461	2175.677734
962.264648	2186.224121
961.130859	2247.494141
959.997070	2207.302246
958.863281	2250.903076
957.729492	2232.768799
956.594727	2097.850586
955.459961	2152.461670
954.325195	2114.537354
953.189453	2109.661865
952.053711	2181.846680
950.917969	2172.555664
949.782227	2180.874023
948.646484	2178.187744
947.509766	2133.708008
946.373047	2082.650391
945.235352	2143.749756
944.098633	2127.884033
942.960938	2101.036133
941.823242	2151.104004
940.685547	2166.000977
939.546875	2062.292969
938.408203	2101.356445
937.269531	2153.573975
936.129883	2102.612549
934.991211	2058.256836
933.851563	2160.906006
932.711914	2070.496826
931.571289	2105.119385
930.431641	2159.457275
929.291016	2165.549805
928.149414	2099.324707
927.008789	2166.771973
925.867188	2177.239258
924.725586	2126.384521
923.583984	2132.476807
922.441406	2099.165771
921.299805	2157.783203
920.157227	2152.924072
919.013672	2108.693115
917.871094	2213.194336
916.727539	2201.766113
915.583984	2164.111328
914.439453	2174.553711
913.295898	2136.921387
912.151367	2099.305664
911.006836	2127.227051
909.861328	2174.787598
908.716797	2058.599121
907.571289	2106.153076
906.424805	2177.688232
905.279297	2192.470459
904.132813	2181.072998
902.986328	2102.082275
901.839844	2188.813965
900.692383	2079.342285
899.545898	2198.726563
898.398438	2169.910400
897.250000	2128.038330
896.102539	2232.087158
894.954102	2196.750732
893.805664	2152.723633
892.656250	2191.410889
891.507813	2171.336914
890.358398	2205.651611
889.208984	2168.185303
888.058594	2185.091309
886.908203	2178.078369
885.758789	2158.029053
884.607422	2240.107910
883.457031	2094.061768
882.305664	2143.541260
881.154297	2143.058350
880.002930	2062.256104
878.850586	2129.071045
877.698242	2193.686035
876.545898	2149.804932
875.393555	2153.658203
874.240234	2153.172607
873.086914	2150.519287
871.933594	2167.373291
870.780273	2184.219482
869.625977	2112.235840
868.471680	2094.431885
867.317383	2141.598389
866.162109	2095.651611
865.007813	2138.467285
863.852539	2150.968262
862.696289	2107.213379
861.541016	2111.063477
860.384766	2162.486328
859.228516	2077.679932
858.072266	2081.533447
856.915039	2102.673340
855.757813	2104.358643
854.600586	2177.324219
853.442383	2101.247559
852.285156	2089.977051
851.126953	2048.491455
849.968750	2117.087158
848.809570	2131.711426
847.650391	2098.872314
846.491211	2135.060059
845.332031	2093.610107
844.171875	2086.669189
843.012695	2232.747803
841.851563	2105.116455
840.691406	2102.485596
839.530273	2099.855469
838.369141	2110.145996
837.208008	2083.835205
836.046875	2083.362793
834.884766	2063.524902
833.722656	1979.158081
832.560547	2079.795654
831.397461	2109.427979
830.234375	2044.455811
829.071289	2080.530273
827.908203	2032.784302
826.744141	1991.504761
825.580078	2079.114502
824.416016	2046.432251
823.251953	2039.527100
822.086914	2036.917725
820.921875	2064.351807
819.756836	2066.028564
818.590820	2102.022949
817.425781	2047.934570
816.259766	2075.340576
815.092773	2070.582031
813.926758	2085.112305
812.759766	2073.926025
811.592773	2007.052612
810.424805	2004.454712
809.257813	2059.665527
808.089844	1999.262085
806.920898	2048.028564
805.752930	2013.329590
804.583984	2094.156494
803.415039	2042.353760
802.246094	2061.131836
801.076172	2067.075439
799.906250	2032.410889
798.736328	2029.811523
797.566406	2025.077026
796.395508	2052.379395
795.224609	2066.858398
794.053711	2072.791504
792.881836	2014.695557
791.710938	1963.026978
790.538086	2000.977905
789.366211	1998.389038
788.194336	2036.314331
787.021484	1974.028442
785.848633	2060.961182
784.674805	2077.537842
783.500977	2028.066406
782.327148	2016.954590
781.153320	2073.986816
779.979492	2060.740479
778.804688	2085.810547
777.629883	2021.497803
776.454102	2101.877686
775.279297	2035.463379
774.103516	1956.320435
772.927734	2117.445801
771.750977	2021.316284
770.575195	2035.729492
769.398438	2079.878662
768.220703	2005.063232
767.043945	1991.863892
765.866211	1999.900757
764.688477	2033.404419
763.510742	2128.432617
762.332031	1998.529419
761.153320	2059.584229
759.974609	2018.821533
758.794922	1948.395630
757.616211	2077.248047
756.436523	2049.223877
755.255859	2038.161499
754.076172	2080.058838
752.895508	2088.053467
751.714844	2083.341064
750.533203	2013.012085
749.352539	2126.828369
748.170898	2079.794678
746.988281	2127.969727
745.806641	2110.563965
744.624023	2148.138184
743.441406	2156.101318
742.258789	2202.100586
741.075195	2212.160400
739.891602	2289.811035
738.708008	2285.062500
737.523438	2305.652588
736.339844	2423.335449
735.155273	2500.865967
733.969727	2561.480957
732.785156	2681.133301
731.599609	2623.575684
730.414063	2705.205322
729.227539	2616.047852
728.041992	2501.640869
726.855469	2391.500244
725.667969	2289.836182
724.481445	2251.401123
723.293945	2236.145264
722.106445	2119.850342
720.918945	2214.072021
719.730469	2152.543457
718.541992	2097.353760
717.353516	2096.872070
716.164063	2022.795776
714.975586	2045.455444
713.786133	2007.154297
712.595703	2012.996826
711.406250	1981.022705
710.215820	1995.269287
709.025391	2005.309692
707.833984	1946.067749
706.642578	1958.213257
705.451172	1982.943237
704.259766	1971.997803
703.068359	1969.446899
701.875977	1960.606323
700.683594	1920.323242
699.490234	1984.855591
698.297852	2036.785278
697.104492	2000.702026
695.910156	1945.784668
694.716797	1980.935059
693.522461	2047.472046
692.328125	1992.581421
691.132813	2038.159058
689.938477	1981.203491
688.743164	1932.640503
687.547852	1923.830811
686.351563	2040.463501
685.155273	1989.829712
683.958984	2008.178467
682.762695	2003.537354
681.565430	2046.938599
680.368164	2027.672852
679.170898	2016.766846
677.973633	1987.080200
676.775391	2001.229736
675.577148	1984.077881
674.378906	1962.762207
673.179688	1922.688110
671.980469	1947.263062
670.781250	1975.995361
669.581055	2006.798218
668.381836	2016.752441
667.181641	2043.365479
665.980469	2088.708252
664.780273	2098.636230
663.579102	2037.788452
662.377930	2060.209473
661.175781	1995.237183
659.973633	2059.258545
658.771484	2062.942383
657.569336	2135.234619
656.367188	2116.034180
655.164063	2092.686035
653.960938	2065.193359
652.756836	2070.947998
651.552734	2047.625977
650.348633	2063.762695
649.144531	2154.618652
647.939453	2048.282715
646.735352	2147.398926
645.529297	2014.147461
644.324219	2119.447021
643.118164	1940.649780
641.912109	2050.063232
640.706055	2026.793091
639.499023	2078.122314
638.292969	2063.142090
637.084961	2120.651611
635.877930	2004.215088
634.669922	2057.571533
633.461914	2067.443359
632.253906	1996.618042
631.044922	2041.664551
629.836914	2024.647827
628.626953	1974.557129
627.417969	2052.651123
626.208008	1946.777466
624.998047	2055.833740
623.788086	1960.336670
622.577148	2007.382935
621.366211	1990.400513
620.155273	2004.389771
618.944336	2012.181030
617.732422	2050.917969
616.520508	2013.312622
615.308594	1948.913940
614.095703	2020.628174
612.882813	1937.704834
611.669922	1994.961792
610.457031	1893.538696
609.243164	1963.138794
608.029297	2003.873779
606.815430	2023.999756
605.600586	1974.126465
604.385742	1948.972656
603.170898	1954.693970
601.955078	1915.156494
600.740234	1935.279053
599.524414	1980.065918
598.307617	1952.883545
597.091797	1905.161743
595.875000	1912.939209
594.658203	1924.821411
593.440430	1951.074341
592.222656	1932.142578
591.004883	1907.061157
589.787109	2011.288330
588.568359	1908.229248
587.349609	1940.609009
586.130859	1919.650146
584.912109	1919.205200
583.692383	1970.009277
582.472656	1873.226929
581.251953	1952.703979
580.032227	1929.717407
578.811523	1959.990845
577.589844	1969.774292
576.369141	1864.915039
575.147461	1972.954224
573.925781	1892.696533
572.703125	1980.222046
571.481445	1998.169678
570.258789	1948.632568
569.035156	1991.110107
567.812500	1919.115723
566.588867	1945.233643
565.365234	1893.711548
564.140625	1985.178589
562.916992	1954.089722
561.692383	1925.056641
560.466797	1975.633545
559.242188	1958.851440
558.016602	1964.516968
556.791016	1990.574951
555.564453	1918.746338
554.337891	1967.227051
553.111328	1942.313232
551.884766	1917.411011
550.657227	1998.452393
549.429688	1955.218262
548.202148	2030.104370
546.974609	2001.132813
545.746094	1966.068848
544.517578	2000.204102
543.288086	1995.671143
542.058594	1942.327881
540.829102	2039.479248
539.599609	2002.413452
538.370117	2064.954102
537.139648	1989.292236
535.909180	2011.176880
534.677734	2012.740967
533.446289	1991.968262
532.214844	2019.926880
530.983398	1972.777100
529.750977	1982.464722
528.519531	1973.889893
527.286133	1987.628906
526.053711	1999.333740
524.820313	2025.223877
523.586914	2057.182129
522.353516	2153.967285
521.119141	2198.035645
519.884766	2165.119385
518.650391	2079.571045
517.415039	2034.550781
516.179688	2056.341797
514.944336	2051.817383
513.708984	1950.190063
