#Wave		#Intensity
2109.007813	2505.687988
2107.496094	2555.305420
2105.984375	2478.688965
2104.470703	2496.338379
2102.958984	2466.047607
2101.445313	2525.004150
2099.933594	2564.109863
2098.419922	2540.431152
2096.906250	2513.459961
2095.390625	2370.926025
2093.876953	2362.160645
2092.361328	2421.063721
2090.845703	2380.941650
2089.332031	2357.333252
2087.814453	2368.369873
2086.298828	2364.561523
2084.783203	2367.349121
2083.265625	2386.617676
2081.748047	2335.020020
2080.230469	2293.329346
2078.712891	2301.071533
2077.195313	2279.167725
2075.677734	2295.141846
2074.158203	2195.882813
2072.638672	2253.011230
2071.119141	2249.235840
2069.599609	2327.713623
2068.080078	2281.162354
2066.560547	2303.692627
2065.039063	2294.978027
2063.517578	2232.027832
2061.996094	2244.694580
2060.474609	2324.715088
2058.953125	2238.803223
2057.429688	2289.230957
2055.908203	2301.874512
2054.384766	2265.267822
2052.861328	2231.959229
2051.337891	2300.393799
2049.814453	2247.406494
2048.289063	2232.164063
2046.765625	2275.958740
2045.240234	2262.355957
2043.714844	2215.978271
2042.189453	2205.671631
2040.664063	2247.796143
2039.136719	2304.644531
2037.609375	2271.398438
2036.083984	2213.607422
2034.556641	2294.980469
2033.029297	2232.299561
2031.500000	2280.909180
2029.972656	2236.252441
2028.443359	2293.018066
2026.914063	2238.566895
2025.386719	2314.925781
2023.855469	2294.817383
2022.326172	2183.205811
2020.796875	2285.668213
2019.265625	2268.845703
2017.734375	2235.699463
2016.203125	2262.978760
2014.671875	2308.202881
2013.140625	2258.748779
2011.607422	2228.896484
2010.076172	2228.420898
2008.542969	2224.683594
2007.009766	2189.965576
2005.476563	2311.771484
2003.943359	2278.679443
2002.408203	2198.343018
2000.875000	2215.796387
1999.339844	2329.348145
1997.804688	2247.423584
1996.269531	2214.380371
1994.732422	2213.908691
1993.197266	2272.028320
1991.660156	2325.241455
1990.123047	2272.687744
1988.585938	2306.360352
1987.048828	2263.589844
1985.511719	2204.579590
1983.972656	2243.121338
1982.435547	2215.017334
1980.896484	2196.673828
1979.357422	2282.300537
1977.818359	2275.319092
1976.279297	2253.726807
1974.738281	2259.741211
1973.197266	2220.308105
1971.658203	2234.440430
1970.117188	2165.827393
1968.576172	2236.735107
1967.033203	2267.071289
1965.492188	2195.252197
1963.949219	2269.350342
1962.406250	2236.456055
1960.863281	2203.575684
1959.320313	2263.045166
1957.777344	2228.553467
1956.232422	2205.411133
1954.689453	2284.269043
1953.144531	2227.135010
1951.599609	2265.499512
1950.054688	2145.296387
1948.507813	2251.598145
1946.962891	2257.589355
1945.416016	2171.417969
1943.869141	2235.617432
1942.322266	2207.668701
1940.775391	2184.579102
1939.228516	2216.425537
1937.679688	2261.179199
1936.132813	2218.715576
1934.583984	2242.461914
1933.035156	2225.845703
1931.486328	2201.167725
1929.935547	2178.113525
1928.386719	2245.401367
1926.835938	2223.959961
1925.285156	2165.442871
1923.734375	2252.034912
1922.183594	2195.148193
1920.632813	2204.351563
1919.080078	2192.607666
1917.527344	2296.838135
1915.976563	2220.665527
1914.423828	2236.295654
1912.869141	2198.799805
1911.316406	2206.381104
1909.761719	2178.561523
1908.208984	2160.405518
1906.654297	2195.330811
1905.099609	2165.923096
1903.544922	2171.895264
1901.988281	2255.014404
1900.433594	2158.120850
1898.876953	2131.958740
1897.320313	2248.764893
1895.763672	2249.895264
1894.207031	2199.646484
1892.648438	2195.970703
1891.091797	2195.506348
1889.533203	2146.905273
1887.974609	2154.472412
1886.416016	2179.678955
1884.857422	2212.892578
1883.298828	2162.725586
1881.738281	2144.636719
1880.177734	2171.426514
1878.617188	2235.054932
1877.056641	2205.749268
1875.496094	2163.643799
1873.935547	2212.822998
1872.373047	2186.741943
1870.810547	2240.696777
1869.248047	2133.012695
1867.685547	2217.352295
1866.123047	2148.106201
1864.560547	2130.061523
1862.996094	2177.575928
1861.431641	2197.895996
1859.867188	2207.020264
1858.302734	2096.306152
1856.738281	2142.189697
1855.171875	2224.787354
1853.607422	2201.962402
1852.041016	2179.147217
1850.474609	2194.647949
1848.908203	2243.653320
1847.341797	2133.094482
1845.773438	2178.901611
1844.207031	2159.304443
1842.638672	2185.953613
1841.070313	2097.817139
1839.501953	2202.561523
1837.931641	2184.568848
1836.363281	2123.570557
1834.792969	2161.347900
1833.222656	2272.359619
1831.652344	2185.908203
1830.082031	2117.002197
1828.511719	2173.845459
1826.941406	2132.018799
1825.369141	2179.290283
1823.796875	2166.106934
1822.224609	2175.189941
1820.652344	2130.218506
1819.078125	2125.000488
1817.505859	2154.743652
1815.931641	2133.635498
1814.357422	2137.949951
1812.783203	2178.787598
1811.208984	2197.379883
1809.634766	2187.391602
1808.058594	2112.339355
1806.484375	2169.014160
1804.908203	2146.347168
1803.332031	2176.028320
1801.753906	2124.826660
1800.177734	2105.353760
1798.601563	2071.623779
1797.023438	2205.884521
1795.445313	2140.460205
1793.867188	2184.360840
1792.289063	2201.320068
1790.708984	2192.938232
1789.130859	2165.563965
1787.550781	2147.697021
1785.970703	2142.496338
1784.390625	2148.371826
1782.810547	2147.918213
1781.228516	2198.067383
1779.646484	2156.496826
1778.066406	2184.493408
1776.484375	2169.808838
1774.902344	2150.390381
1773.318359	2110.444336
1771.736328	2111.577881
1770.152344	2169.554932
1768.568359	2098.056396
1766.984375	2197.048340
1765.400391	2136.619873
1763.816406	2101.459717
1762.230469	2148.335693
1760.646484	2100.571533
1759.060547	2164.771240
1757.474609	2094.954834
1755.888672	2135.488281
1754.300781	2161.823242
1752.714844	2131.434814
1751.126953	2192.409668
1749.539063	2151.004639
1747.951172	2114.340088
1746.363281	2205.185547
1744.775391	2198.424805
1743.185547	2190.093262
1741.595703	2166.034912
1740.007813	2236.347412
1738.416016	2201.282959
1736.826172	2177.237305
1735.236328	2145.343262
1733.644531	2159.031494
1732.052734	2244.980713
1730.462891	2175.395752
1728.869141	2201.631592
1727.277344	2188.605713
1725.685547	2172.445801
1724.091797	2156.292480
1722.498047	2196.630859
1720.904297	2164.792236
1719.310547	2267.845703
1717.716797	2262.661621
1716.121094	2204.178223
1714.527344	2137.882324
1712.931641	2160.935303
1711.335938	2245.079590
1709.740234	2152.188477
1708.142578	2189.317627
1706.546875	2176.328613
1704.949219	2241.613281
1703.351563	2202.012451
1701.753906	2262.569824
1700.156250	2210.466064
1698.558594	2153.692139
1696.958984	2223.603027
1695.359375	2151.216309
1693.759766	2247.669922
1692.160156	2222.189941
1690.560547	2198.283203
1688.960938	2174.386475
1687.359375	2130.197266
1685.757813	2281.201172
1684.156250	2207.347412
1682.554688	2261.505127
1680.953125	2300.035645
1679.349609	2310.468506
1677.748047	2250.708252
1676.144531	2293.894531
1674.541016	2338.621338
1672.937500	2241.482666
1671.332031	2368.797363
1669.728516	2349.597900
1668.123047	2336.637207
1666.517578	2306.550049
1664.912109	2388.586670
1663.306641	2347.603760
1661.701172	2384.459961
1660.093750	2438.417480
1658.486328	2335.218506
1656.878906	2432.715576
1655.271484	2411.982422
1653.664063	2417.689209
1652.056641	2479.354004
1650.447266	2514.572021
1648.837891	2577.743164
1647.228516	2552.340088
1645.619141	2539.372559
1644.009766	2577.653076
1642.398438	2611.259521
1640.789063	2657.268555
1639.177734	2633.426514
1637.566406	2603.388428
1635.955078	2605.937012
1634.341797	2641.051758
1632.730469	2578.470215
1631.117188	2653.879639
1629.503906	2707.559082
1627.890625	2674.443359
1626.277344	2681.620117
1624.662109	2668.658691
1623.048828	2697.512207
1621.433594	2681.456055
1619.818359	2688.624512
1618.203125	2666.386475
1616.587891	2727.706543
1614.970703	2748.781738
1613.353516	2827.069336
1611.738281	2865.122314
1610.121094	2798.039063
1608.501953	2848.445801
1606.884766	2942.096924
1605.267578	2892.033447
1603.648438	2909.951416
1602.029297	2943.303955
1600.410156	2987.449463
1598.791016	3013.052979
1597.169922	3077.226563
1595.550781	3042.625977
1593.929688	3109.850342
1592.308594	3036.700684
1590.687500	3097.729492
1589.064453	3117.109131
1587.443359	3134.938721
1585.820313	3072.631836
1584.197266	3105.869141
1582.574219	3129.850098
1580.951172	3032.164551
1579.328125	3065.388428
1577.703125	2983.150879
1576.080078	3065.617432
1574.455078	2992.646240
1572.830078	3019.696045
1571.203125	3055.961914
1569.578125	2975.350586
1567.951172	3074.639893
1566.324219	2938.727051
1564.697266	2967.294922
1563.070313	3000.459229
1561.443359	2939.913086
1559.816406	2934.676758
1558.187500	2937.119141
1556.558594	3005.566162
1554.929688	2928.187988
1553.300781	2950.576172
1551.669922	2936.137939
1550.041016	2831.217041
1548.410156	2852.077637
1546.779297	2857.598633
1545.148438	2837.060791
1543.517578	2839.517334
1541.884766	2806.735107
1540.251953	2826.045654
1538.621094	2754.994873
1536.988281	2682.443359
1535.353516	2700.236816
1533.720703	2618.545166
1532.085938	2640.934570
1530.453125	2597.534424
1528.818359	2577.093994
1527.183594	2614.768066
1525.546875	2600.447510
1523.912109	2492.897705
1522.275391	2541.261963
1520.640625	2546.826904
1519.003906	2529.477539
1517.365234	2550.313721
1515.728516	2531.443604
1514.091797	2613.329102
1512.453125	2559.351807
1510.814453	2569.481934
1509.175781	2523.164307
1507.537109	2562.275635
1505.896484	2583.072021
1504.257813	2492.569824
1502.617188	2551.476318
1500.976563	2534.164551
1499.335938	2557.995117
1497.693359	2595.523926
1496.052734	2512.729736
1494.410156	2483.260010
1492.767578	2531.435547
1491.125000	2593.287109
1489.482422	2559.253662
1487.837891	2586.083740
1486.195313	2521.648438
1484.550781	2619.941406
1482.906250	2620.896240
1481.261719	2596.011963
1479.617188	2592.412598
1477.970703	2623.757080
1476.324219	2570.028076
1474.677734	2605.919434
1473.031250	2596.246826
1471.384766	2553.183594
1469.738281	2523.797119
1468.089844	2585.460449
1466.441406	2615.240723
1464.792969	2623.774902
1463.144531	2567.104248
1461.496094	2625.672119
1459.845703	2635.713623
1458.197266	2718.485840
1456.546875	2683.052734
1454.896484	2634.002441
1453.244141	2610.717041
1451.593750	2591.983643
1449.941406	2552.066406
1448.291016	2587.833984
1446.638672	2620.559814
1444.984375	2508.052246
1443.332031	2540.780762
1441.679688	2529.645508
1440.025391	2482.233887
1438.371094	2428.796875
1436.716797	2481.156982
1435.062500	2507.811768
1433.406250	2454.403564
1431.750000	2407.058350
1430.095703	2376.340820
1428.439453	2360.730469
1426.781250	2402.472412
1425.125000	2365.739990
1423.466797	2405.953613
1421.810547	2364.711914
1420.152344	2290.316650
1418.494141	2378.758301
1416.833984	2385.776611
1415.175781	2382.244141
1413.515625	2310.921631
1411.855469	2360.121582
1410.195313	2317.445068
1408.535156	2322.962402
1406.875000	2391.693848
1405.212891	2440.832275
1403.550781	2392.156494
1401.888672	2495.423340
1400.226563	2451.267822
1398.564453	2512.377686
1396.900391	2484.772705
1395.238281	2488.739258
1393.574219	2548.297852
1391.910156	2519.199951
1390.244141	2520.152100
1388.580078	2476.057129
1386.914063	2562.587646
1385.248047	2509.496582
1383.582031	2522.453613
1381.916016	2578.911865
1380.250000	2621.845703
1378.582031	2630.270264
1376.916016	2647.686523
1375.248047	2626.122559
1373.578125	2547.621094
1371.910156	2568.039551
1370.242188	2580.959473
1368.572266	2527.978027
1366.902344	2558.867676
1365.232422	2517.889648
1363.562500	2538.291260
1361.890625	2498.831299
1360.220703	2546.155273
1358.548828	2515.684326
1356.876953	2545.039551
1355.205078	2605.776367
1353.531250	2605.205078
1351.859375	2523.939453
1350.185547	2605.556396
1348.511719	2658.757324
1346.837891	2698.494385
1345.164063	2757.623291
1343.488281	2794.335449
1341.812500	2847.447266
1340.138672	2884.122803
1338.460938	3023.710693
1336.785156	3131.917725
1335.109375	3162.541504
1333.431641	3276.632813
1331.753906	3164.131836
1330.076172	3209.628418
1328.398438	3144.863037
1326.720703	3144.171143
1325.041016	3109.229980
1323.361328	3166.607422
1321.681641	3081.069092
1320.001953	3058.068848
1318.322266	2997.883789
1316.640625	2963.011963
1314.960938	2849.337158
1313.279297	2868.037354
1311.597656	2806.459717
1309.914063	2756.798096
1308.232422	2834.938232
1306.548828	2745.183350
1304.865234	2653.982666
1303.181641	2700.911621
1301.498047	2605.306885
1299.814453	2569.111328
1298.128906	2528.479736
1296.443359	2539.789307
1294.757813	2484.349854
1293.072266	2511.975098
1291.386719	2380.956543
1289.699219	2404.145264
1288.011719	2391.758545
1286.324219	2348.264160
1284.636719	2358.113037
1282.949219	2363.514648
1281.259766	2311.171387
1279.572266	2229.246338
1277.882813	2279.069580
1276.193359	2306.676758
1274.501953	2242.557617
1272.812500	2344.106689
1271.121094	2311.057861
1269.429688	2269.153564
1267.738281	2237.613281
1266.046875	2315.430664
1264.353516	2251.393311
1262.662109	2250.893555
1260.968750	2147.029297
1259.275391	2273.515137
1257.582031	2135.743896
1255.886719	2213.479004
1254.193359	2167.251953
1252.498047	2225.770020
1250.802734	2133.845703
1249.107422	2114.204834
1247.410156	2160.903076
1245.714844	2160.422119
1244.017578	2154.048096
1242.320313	2144.730469
1240.623047	2173.706787
1238.925781	2152.609619
1237.226563	2097.664551
1235.527344	2144.291992
1233.828125	2096.729736
1232.128906	2133.038818
1230.429688	2167.860840
1228.728516	2162.966309
1227.029297	2175.714355
1225.328125	2176.698730
1223.626953	2110.089111
1221.923828	2108.148926
1220.222656	2090.052979
1218.519531	2064.622803
1216.816406	2006.905396
1215.113281	2071.039307
1213.410156	2052.967041
1211.707031	1980.619019
1210.001953	2019.779785
1208.296875	2063.322021
1206.591797	2020.342407
1204.886719	1996.437378
1203.179688	2016.507324
1201.474609	2011.660522
1199.767578	2005.350708
1198.060547	1917.031616
1196.353516	1959.063110
1194.644531	1943.985718
1192.937500	1901.108154
1191.228516	2003.105103
1189.519531	1977.787354
1187.810547	1999.281738
1186.099609	1947.656128
1184.390625	2014.465332
1182.679688	1992.090088
1180.968750	2004.793823
1179.257813	2016.030762
1177.544922	2050.631592
1175.833984	1950.874878
1174.121094	2040.950684
1172.408203	2062.385742
1170.695313	2019.603760
1168.982422	1934.532104
1167.267578	2020.154053
1165.552734	2012.408325
1163.837891	1965.301392
1162.123047	1944.452515
1160.408203	1964.416748
1158.691406	1969.802124
1156.976563	1916.919922
1155.259766	1928.138428
1153.541016	1910.232300
1151.824219	1917.079956
1150.107422	1878.809692
1148.388672	1875.475952
1146.669922	1912.874023
1144.951172	1945.892090
1143.230469	1906.194946
1141.511719	1952.282227
1139.791016	1967.828247
1138.070313	1875.843872
1136.349609	1827.481445
1134.628906	1924.376587
1132.906250	1848.436157
1131.185547	1862.535400
1129.462891	1910.009644
1127.740234	1900.871460
1126.015625	1839.511230
1124.292969	1904.362671
1122.568359	1815.477905
1120.843750	1861.458374
1119.119141	1814.656006
1117.394531	1866.411865
1115.667969	1821.077881
1113.941406	1780.109497
1112.214844	1801.427368
1110.488281	1816.944458
1108.761719	1757.187622
1107.033203	1826.250366
1105.306641	1779.539185
1103.578125	1738.634766
1101.849609	1752.701416
1100.119141	1762.424072
1098.390625	1747.569336
1096.660156	1774.630005
1094.929688	1761.223633
1093.199219	1749.267700
1091.468750	1730.096069
1089.736328	1736.921997
1088.003906	1720.648560
1086.273438	1721.700439
1084.539063	1716.980347
1082.806641	1723.802246
1081.074219	1745.042603
1079.339844	1723.017578
1077.605469	1731.274414
1075.871094	1729.438965
1074.134766	1743.453735
1072.400391	1731.532227
1070.664063	1713.854980
1068.927734	1742.262085
1067.191406	1674.205688
1065.455078	1737.149902
1063.716797	1716.609009
1061.978516	1694.638794
1060.240234	1685.622559
1058.501953	1690.989502
1056.763672	1687.728271
1055.023438	1670.095703
1053.283203	1617.984741
1051.542969	1672.205933
1049.802734	1645.970947
1048.062500	1682.929321
1046.320313	1678.237671
1044.578125	1636.230469
1042.835938	1668.860352
1041.093750	1700.040405
1039.351563	1689.611328
1037.607422	1693.526489
1035.863281	1703.174316
1034.119141	1711.384277
1032.375000	1693.796387
1030.628906	1631.803833
1028.884766	1705.911255
1027.138672	1702.656250
1025.392578	1670.769043
1023.646484	1681.836670
1021.898438	1674.295898
1020.152344	1682.495972
1018.404297	1689.261719
1016.656250	1723.194946
1014.906250	1668.470337
1013.158203	1756.708862
1011.408203	1670.562256
1009.658203	1634.460449
1007.908203	1665.509644
1006.158203	1689.404053
1004.406250	1691.871094
1002.656250	1652.942017
1000.904297	1698.228516
999.150391	1687.850708
997.398438	1691.741577
995.646484	1637.160645
993.892578	1690.963013
992.138672	1697.700928
990.384766	1678.783569
988.628906	1719.715576
986.875000	1709.348267
985.119141	1704.682007
983.363281	1778.326660
981.607422	1723.824829
979.849609	1716.311646
978.093750	1698.842041
976.335938	1678.535278
974.578125	1705.169067
972.820313	1680.604370
971.060547	1638.992920
969.300781	1667.037964
967.542969	1670.915527
965.781250	1698.939941
964.021484	1705.648438
962.261719	1700.994751
960.500000	1680.728149
958.738281	1732.850220
956.976563	1731.030640
955.214844	1683.818115
953.451172	1639.463745
951.687500	1691.546509
949.923828	1684.067261
948.160156	1595.808716
946.396484	1609.608398
944.630859	1623.401489
942.865234	1671.177979
941.099609	1628.313110
939.333984	1652.000977
937.568359	1590.761597
935.800781	1538.040039
934.033203	1635.291626
932.265625	1658.955200
930.498047	1552.523682
928.730469	1607.295044
926.960938	1604.095459
925.191406	1598.071289
923.421875	1688.109497
921.652344	1560.609131
919.880859	1547.538696
918.109375	1534.474365
916.337891	1532.706543
914.566406	1581.735474
912.794922	1526.351440
911.021484	1568.307007
909.248047	1562.302246
907.474609	1576.035889
905.701172	1543.253906
903.927734	1499.214722
902.152344	1545.353149
900.376953	1539.359985
898.601563	1498.168091
896.826172	1542.866333
895.050781	1528.433105
893.273438	1491.493286
891.496094	1510.840088
889.718750	1561.118896
887.939453	1494.668945
886.162109	1533.681763
884.382813	1526.296997
882.603516	1547.017578
880.824219	1550.870972
879.044922	1494.331299
877.263672	1451.859009
875.482422	1454.327759
873.701172	1512.933716
871.919922	1434.004761
870.138672	1479.962646
868.355469	1489.434204
866.572266	1434.402344
864.789063	1481.729248
863.005859	1451.951416
861.220703	1481.036621
859.435547	1438.665039
857.650391	1422.922974
855.865234	1477.197388
854.080078	1479.651611
852.292969	1438.718994
850.505859	1459.370361
848.718750	1457.629883
846.931641	1506.237793
845.144531	1490.504639
843.355469	1481.768188
841.566406	1473.035767
839.777344	1446.143066
837.988281	1461.170166
836.197266	1487.362915
834.408203	1453.504028
832.617188	1408.493530
830.824219	1479.338867
829.033203	1478.991943
827.240234	1459.115723
825.449219	1447.616455
823.656250	1521.174316
821.861328	1476.210327
820.068359	1514.885620
818.273438	1522.889893
816.478516	1521.139160
814.683594	1474.824219
812.888672	1468.908447
811.091797	1408.707153
809.296875	1405.592773
807.500000	1449.785522
805.701172	1423.015381
803.904297	1403.211060
802.105469	1443.201660
800.308594	1402.551025
798.509766	1396.662231
796.708984	1408.838135
794.910156	1419.619141
793.109375	1435.949707
791.308594	1410.620483
789.507813	1417.228638
787.707031	1455.752075
785.904297	1413.786377
784.101563	1381.550049
782.298828	1417.280640
780.496094	1372.580444
778.693359	1366.712524
776.888672	1383.019897
775.083984	1357.755493
773.279297	1374.056885
771.474609	1412.507568
769.667969	1327.720825
767.861328	1386.926514
766.054688	1360.306396
764.248047	1365.519409
762.441406	1430.206543
760.632813	1392.531860
758.824219	1441.974121
757.015625	1420.900635
755.207031	1410.891968
753.398438	1445.097290
751.587891	1446.137085
749.777344	1483.079590
747.966797	1481.348511
746.154297	1548.630249
744.343750	1551.023926
742.531250	1637.571289
740.718750	1773.731079
738.906250	1948.436523
737.091797	2140.980957
735.277344	2454.723145
733.464844	2732.489746
731.648438	2802.102539
729.833984	2771.138428
728.019531	2577.705566
726.203125	2231.555176
724.386719	1948.879761
722.568359	1703.489990
720.751953	1610.916260
718.933594	1540.391846
717.115234	1406.649536
715.296875	1399.442749
713.478516	1385.367432
711.658203	1396.031494
709.839844	1358.610107
708.019531	1358.287964
706.197266	1364.831299
704.376953	1291.752197
702.554688	1372.418579
700.734375	1336.418579
698.910156	1353.934570
697.087891	1374.184937
695.265625	1343.694336
693.441406	1346.116943
691.617188	1366.354492
689.792969	1400.283569
687.966797	1401.320923
686.140625	1359.903564
684.316406	1367.795532
682.490234	1397.585205
680.662109	1399.990234
678.835938	1424.285034
677.007813	1370.599976
675.179688	1357.966431
673.351563	1365.846924
671.521484	1334.083862
669.693359	1344.699219
667.863281	1351.210693
666.033203	1353.621216
664.201172	1341.009033
662.371094	1370.725952
660.539063	1388.144165
658.707031	1391.907837
656.875000	1386.119507
655.041016	1418.524902
653.208984	1448.187378
651.375000	1406.943237
649.541016	1405.245361
647.705078	1433.526855
645.871094	1472.693481
644.035156	1426.034180
642.199219	1382.120361
640.363281	1370.900269
638.525391	1410.044067
636.689453	1421.954712
634.851563	1418.895142
633.013672	1388.635498
631.173828	1331.195068
629.335938	1378.457764
627.496094	1403.952148
625.656250	1410.411499
623.816406	1412.792114
621.974609	1411.097168
620.132813	1412.118530
618.292969	1311.328125
616.449219	1324.587036
614.607422	1331.055298
612.763672	1291.398926
610.921875	1329.064209
609.078125	1326.035400
607.232422	1283.697266
605.388672	1296.943115
603.542969	1292.568970
601.697266	1296.324097
599.851563	1258.095825
598.005859	1252.379883
596.158203	1262.909668
594.310547	1280.200806
592.462891	1260.953735
590.615234	1244.421021
588.765625	1200.849976
586.916016	1215.435059
585.066406	1240.826416
583.216797	1232.421997
581.367188	1221.319458
579.515625	1206.170044
577.664063	1231.538940
575.812500	1213.693970
573.960938	1276.841187
572.107422	1232.005615
570.253906	1242.503906
568.400391	1267.833374
566.546875	1268.878662
564.693359	1257.790527
562.837891	1262.880981
560.982422	1269.316406
559.126953	1271.707153
557.269531	1239.079346
555.414063	1238.782959
553.556641	1235.794434
551.699219	1283.949707
549.841797	1236.548828
547.982422	1251.050415
546.123047	1261.510376
544.263672	1258.519409
542.404297	1259.562622
540.544922	1276.732300
538.683594	1330.171143
536.822266	1341.942383
534.960938	1330.877563
533.099609	1228.518188
531.236328	1241.647461
529.373047	1296.372314
527.509766	1309.478760
525.646484	1382.940063
523.783203	1642.770142
521.917969	2277.876221
520.052734	2718.320801
518.187500	2338.428955
516.320313	1832.782227
514.455078	1445.247559
512.587891	1315.007568
510.720703	1235.704102
508.853516	1180.530884
506.984375	1225.745239
505.115234	1209.397705
503.246094	1174.332886
501.376953	1242.248291
499.507813	1227.245117
497.636719	1206.902954
495.765625	1185.234253
493.894531	1172.927124
492.021484	1230.076538
490.150391	1225.776001
488.277344	1170.749512
486.404297	1182.480713
484.531250	1146.171021
482.656250	1139.226440
480.781250	1192.300293
478.906250	1192.014648
477.031250	1199.727173
475.156250	1174.118164
473.279297	1205.814331
471.402344	1137.589600
469.525391	1195.914185
467.648438	1121.067261
465.769531	1106.156372
463.890625	1172.431152
462.011719	1190.776855
460.132813	1135.954956
458.251953	1174.248047
456.371094	1146.046753
454.490234	1135.138428
452.609375	1122.906372
450.728516	1121.308716
448.845703	1097.131592
446.962891	1134.050537
445.080078	1139.089233
443.197266	1095.015625
441.312500	1171.717651
439.427734	1106.430664
437.542969	1115.449829
435.658203	1117.834473
433.771484	1105.635254
431.886719	1108.020996
430.000000      1091.854736
428.111328	1116.763184
426.224609	1178.743774
424.335938	1133.441406
422.447266	1096.103516
420.558594	1122.310303
418.669922	1133.949829
416.779297	1136.323730
414.888672	1087.117798
412.998047	1134.456909
411.107422	1122.287964
409.214844	1120.697388
407.324219	1132.320190
405.431641	1112.234619
403.537109	1101.403076
401.644531	1142.068848
399.750000	1106.155273
