#Wave		#Intensity
2109.224609	10922.800781
2107.712891	11017.077148
2106.201172	10994.851563
2104.687500	11068.523438
2103.175781	11026.461914
2101.662109	10918.316406
2100.150391	11025.001953
2098.636719	11014.361328
2097.123047	11033.452148
2095.607422	11135.090820
2094.093750	10941.199219
2092.578125	10940.489258
2091.064453	10926.579102
2089.548828	10868.133789
2088.033203	10954.854492
2086.517578	10861.798828
2085.000000	10783.622070
2083.484375	10708.775391
2081.966797	10757.553711
2080.449219	10788.188477
2078.931641	10836.928711
2077.414063	10818.127930
2075.894531	10824.032227
2074.376953	10843.103516
2072.857422	10847.354492
2071.337891	10644.279297
2069.818359	10827.884766
2068.298828	10710.426758
2066.777344	10918.604492
2065.257813	10656.504883
2063.736328	10713.387695
2062.214844	10758.743164
2060.693359	10818.865234
2059.171875	10699.917969
2057.648438	10863.489258
2056.126953	10650.995117
2054.603516	10597.822266
2053.080078	10743.257813
2051.556641	10781.974609
2050.033203	10778.023438
2048.507813	10608.418945
2046.984375	10835.715820
2045.458984	10638.301758
2043.933594	10806.487305
2042.408203	10792.702148
2040.882813	10688.811523
2039.355469	10684.885742
2037.830078	10667.859375
2036.302734	10636.104492
2034.775391	10794.252930
2033.248047	10841.042969
2031.718750	10545.830078
2030.191406	10682.629883
2028.662109	10588.753906
2027.134766	10694.415039
2025.605469	10785.318359
2024.076172	10668.596680
2022.544922	10632.000000
2021.015625	10717.956055
2019.484375	10704.232422
2017.955078	10595.792969
2016.423828	10510.259766
2014.892578	10646.773438
2013.359375	10659.190430
2011.828125	10658.547852
2010.294922	10622.014648
2008.761719	10575.710938
2007.230469	10581.609375
2005.695313	10602.177734
2004.162109	10655.337891
2002.628906	10613.955078
2001.093750	10623.098633
1999.558594	10637.124023
1998.023438	10499.682617
1996.488281	10564.205078
1994.953125	10418.698242
1993.417969	10585.748047
1991.880859	10638.819336
1990.343750	10747.182617
1988.806641	10557.843750
1987.269531	10662.924805
1985.732422	10598.874023
1984.193359	10585.241211
1982.656250	10517.983398
1981.117188	10562.865234
1979.578125	10420.915039
1978.039063	10624.961914
1976.500000	10687.654297
1974.958984	10513.298828
1973.417969	10522.425781
1971.878906	10575.362305
1970.337891	10467.660156
1968.796875	10499.499023
1967.253906	10589.706055
1965.712891	10550.165039
1964.169922	10411.759766
1962.626953	10513.271484
1961.083984	10549.926758
1959.541016	10401.888672
1957.998047	10482.282227
1956.455078	10413.666016
1954.910156	10464.880859
1953.365234	10514.456055
1951.820313	10523.552734
1950.275391	10620.013672
1948.730469	10574.085938
1947.183594	10579.928711
1945.638672	10488.756836
1944.091797	10533.412109
1942.544922	10482.692383
1940.998047	10373.823242
1939.449219	10455.630859
1937.902344	10602.010742
1936.353516	10561.007813
1934.804688	10408.622070
1933.255859	10579.129883
1931.707031	10365.479492
1930.158203	10363.283203
1928.607422	10244.943359
1927.058594	10395.987305
1925.507813	10456.669922
1923.957031	10391.583984
1922.406250	10399.053711
1920.853516	10358.177734
1919.302734	10365.651367
1917.750000	10255.537109
1916.197266	10424.067383
1914.644531	10468.552734
1913.091797	10422.875000
1911.539063	10449.637695
1909.984375	10239.861328
1908.431641	10359.954102
1906.876953	10301.469727
1905.322266	10334.666016
1903.767578	10290.680664
1902.210938	10518.351563
1900.656250	10220.440430
1899.099609	10219.885742
1897.542969	10307.676758
1895.986328	10191.472656
1894.429688	10280.838867
1892.873047	10273.848633
1891.314453	10411.306641
1889.755859	10256.666992
1888.199219	10156.637695
1886.640625	10364.605469
1885.080078	10320.720703
1883.521484	10264.028320
1881.960938	10418.944336
1880.402344	10285.331055
1878.841797	10430.562500
1877.281250	10306.614258
1875.720703	10309.240234
1874.158203	10299.055664
1872.597656	10340.102539
1871.035156	10241.884766
1869.472656	10193.315430
1867.910156	10072.770508
1866.347656	10265.785156
1864.783203	10314.790039
1863.220703	10194.295898
1861.656250	10300.841797
1860.091797	10229.943359
1858.527344	10291.696289
1856.962891	10388.567383
1855.396484	10237.835938
1853.832031	10189.365234
1852.265625	10176.038086
1850.699219	10295.196289
1849.132813	10208.443359
1847.566406	10448.799805
1845.998047	10204.131836
1844.431641	10217.924805
1842.863281	10293.895508
1841.294922	10256.650391
1839.726563	10305.486328
1838.156250	10261.879883
1836.587891	10266.084961
1835.017578	10322.850586
1833.449219	10255.379883
1831.878906	10170.423828
1830.306641	10346.555664
1828.736328	10271.164063
1827.166016	10399.465820
1825.593750	10328.867188
1824.021484	10395.074219
1822.449219	10230.689453
1820.876953	10176.067383
1819.304688	10223.190430
1817.730469	10173.359375
1816.158203	10206.163086
1814.583984	10300.901367
1813.009766	10251.083984
1811.435547	10339.420898
1809.859375	10224.531250
1808.285156	10281.093750
1806.708984	10161.503906
1805.132813	10089.556641
1803.556641	10318.992188
1801.980469	10297.784180
1800.404297	10287.682617
1798.826172	10431.336914
1797.248047	10254.813477
1795.671875	10244.725586
1794.093750	10315.428711
1792.513672	10351.259766
1790.935547	10279.404297
1789.355469	10289.897461
1787.777344	10142.113281
1786.197266	10141.553711
1784.617188	10240.663086
1783.035156	10437.797852
1781.455078	10304.337891
1779.873047	10243.662109
1778.292969	10477.025391
1776.710938	10506.419922
1775.128906	10414.137695
1773.544922	10430.894531
1771.962891	10329.189453
1770.378906	10361.746094
1768.794922	10193.791016
1767.212891	10325.800781
1765.626953	10205.264648
1764.042969	10242.551758
1762.458984	10256.161133
1760.873047	10236.645508
1759.287109	10437.878906
1757.701172	10292.222656
1756.115234	10304.231445
1754.529297	10428.111328
1752.941406	10348.712891
1751.355469	10385.902344
1749.767578	10404.177734
1748.179688	10455.507813
1746.591797	10434.409180
1745.001953	10595.870117
1743.414063	10543.281250
1741.824219	10506.444336
1740.234375	10641.049805
1738.644531	10549.173828
1737.054688	10669.563477
1735.462891	10742.750000
1733.873047	10636.765625
1732.281250	10749.203125
1730.689453	10798.763672
1729.097656	10812.183594
1727.505859	10893.109375
1725.912109	10766.795898
1724.320313	10723.713867
1722.726563	11050.949219
1721.132813	11073.709961
1719.539063	11102.734375
1717.945313	11185.060547
1716.349609	11170.151367
1714.755859	10893.491211
1713.160156	11069.832031
1711.564453	11255.498047
1709.968750	11307.939453
1708.371094	11120.747070
1706.775391	11174.759766
1705.177734	11258.491211
1703.580078	11293.668945
1701.982422	11223.992188
1700.384766	11279.499023
1698.787109	11170.750977
1697.187500	11196.532227
1695.587891	11369.264648
1693.990234	11416.875000
1692.390625	11344.130859
1690.789063	11422.973633
1689.189453	11622.064453
1687.587891	11396.267578
1685.988281	11607.769531
1684.386719	11561.597656
1682.785156	11760.487305
1681.181641	11815.729492
1679.580078	12016.040039
1677.976563	11941.741211
1676.373047	12146.616211
1674.769531	12098.825195
1673.166016	12167.963867
1671.562500	12481.750000
1669.957031	12480.660156
1668.353516	12705.451172
1666.748047	12880.306641
1665.142578	12975.672852
1663.537109	13150.395508
1661.929688	13376.407227
1660.324219	13705.027344
1658.716797	13807.913086
1657.109375	14276.294922
1655.501953	14319.917969
1653.894531	14676.041992
1652.285156	14840.810547
1650.677734	15209.104492
1649.068359	15278.903320
1647.458984	15412.365234
1645.849609	15732.151367
1644.240234	15943.100586
1642.628906	16357.339844
1641.019531	16524.603516
1639.408203	16850.083984
1637.796875	17100.951172
1636.185547	17018.203125
1634.572266	17594.609375
1632.960938	17725.763672
1631.347656	18232.011719
1629.734375	18065.394531
1628.121094	18332.722656
1626.507813	18677.394531
1624.894531	18823.662109
1623.279297	18921.859375
1621.664063	19337.402344
1620.048828	19523.675781
1618.433594	19983.791016
1616.818359	20219.357422
1615.203125	20522.886719
1613.585938	20891.240234
1611.968750	21284.175781
1610.351563	21403.314453
1608.734375	21714.054688
1607.117188	21765.056641
1605.498047	21972.072266
1603.878906	22027.626953
1602.261719	21995.132813
1600.640625	22129.398438
1599.021484	22036.691406
1597.402344	22388.490234
1595.781250	22047.349609
1594.162109	22235.472656
1592.541016	22121.224609
1590.919922	22304.623047
1589.296875	22142.615234
1587.675781	22262.734375
1586.052734	22330.406250
1584.429688	22091.458984
1582.806641	22308.546875
1581.183594	22471.640625
1579.560547	22739.361328
1577.935547	22736.041016
1576.312500	22951.259766
1574.687500	23247.935547
1573.062500	23226.044922
1571.435547	23421.021484
1569.810547	23389.873047
1568.183594	23593.951172
1566.558594	23415.218750
1564.931641	23127.455078
1563.304688	22621.646484
1561.675781	22761.195313
1560.048828	22499.857422
1558.419922	22491.970703
1556.791016	22025.099609
1555.162109	22203.017578
1553.533203	21945.083984
1551.904297	22218.050781
1550.273438	22115.130859
1548.642578	21817.509766
1547.011719	21607.398438
1545.380859	21343.730469
1543.750000	21306.974609
1542.119141	20855.031250
1540.486328	20652.958984
1538.853516	20470.880859
1537.220703	20541.513672
1535.587891	20276.873047
1533.955078	20335.269531
1532.320313	19942.250000
1530.685547	19858.419922
1529.052734	20169.228516
1527.416016	20056.328125
1525.781250	20168.210938
1524.146484	20125.666016
1522.509766	20005.201172
1520.873047	19959.650391
1519.236328	19927.867188
1517.599609	19961.761719
1515.962891	19905.556641
1514.324219	19731.833984
1512.687500	19755.060547
1511.048828	19564.656250
1509.410156	19320.937500
1507.771484	19129.177734
1506.130859	18910.052734
1504.492188	18752.001953
1502.851563	18566.582031
1501.210938	18422.386719
1499.570313	18380.328125
1497.927734	18115.894531
1496.287109	18005.388672
1494.644531	17958.875000
1493.001953	17709.921875
1491.359375	17622.398438
1489.716797	17506.000000
1488.074219	17284.683594
1486.429688	17042.166016
1484.785156	16894.031250
1483.140625	16787.007813
1481.496094	16523.470703
1479.851563	16383.137695
1478.207031	16452.527344
1476.560547	16148.217773
1474.914063	16320.892578
1473.267578	16176.164063
1471.621094	16357.863281
1469.972656	16053.832031
1468.326172	16185.404297
1466.677734	16250.170898
1465.029297	15912.988281
1463.380859	16094.541016
1461.732422	16271.466797
1460.082031	16274.008789
1458.431641	16325.041016
1456.783203	16445.740234
1455.132813	16610.312500
1453.480469	16618.832031
1451.830078	16739.384766
1450.177734	16961.304688
1448.527344	16931.902344
1446.875000	17050.792969
1445.220703	16853.464844
1443.568359	16923.919922
1441.916016	17018.537109
1440.261719	16686.794922
1438.607422	16594.000000
1436.953125	16502.755859
1435.298828	16407.019531
1433.642578	16140.639648
1431.988281	16174.888672
1430.332031	15738.067383
1428.675781	15464.455078
1427.019531	15446.004883
1425.361328	15115.237305
1423.705078	15013.902344
1422.046875	15143.356445
1420.388672	15022.454102
1418.730469	14936.275391
1417.072266	14815.467773
1415.412109	14723.341797
1413.753906	14809.022461
1412.093750	14709.404297
1410.433594	14740.836914
1408.773438	14576.536133
1407.111328	15012.880859
1405.451172	15152.574219
1403.789063	15084.578125
1402.126953	15195.612305
1400.464844	15168.238281
1398.802734	15376.934570
1397.138672	15166.135742
1395.474609	15174.851563
1393.812500	15176.048828
1392.146484	15123.164063
1390.482422	15149.902344
1388.818359	15091.037109
1387.152344	15059.218750
1385.486328	15254.054688
1383.820313	15205.705078
1382.154297	15143.872070
1380.488281	15383.556641
1378.820313	15617.135742
1377.154297	15922.578125
1375.486328	15832.156250
1373.818359	16098.451172
1372.148438	16292.707031
1370.480469	16359.548828
1368.810547	16300.555664
1367.140625	16329.928711
1365.470703	16300.905273
1363.800781	16195.561523
1362.130859	16159.094727
1360.458984	15974.536133
1358.787109	16093.683594
1357.115234	16060.249023
1355.443359	15971.510742
1353.771484	15863.379883
1352.097656	15801.620117
1350.423828	15857.916016
1348.751953	16041.152344
1347.076172	16290.017578
1345.402344	16710.474609
1343.728516	16873.994141
1342.052734	17218.021484
1340.376953	17236.621094
1338.701172	17478.974609
1337.025391	17479.607422
1335.347656	17796.353516
1333.671875	17758.154297
1331.994141	17702.083984
1330.316406	17750.343750
1328.638672	17560.214844
1326.960938	17288.248047
1325.281250	17294.867188
1323.601563	17222.574219
1321.921875	17245.574219
1320.242188	16956.050781
1318.562500	17031.169922
1316.880859	16831.068359
1315.201172	16555.205078
1313.519531	16541.148438
1311.837891	16412.634766
1310.154297	15967.616211
1308.472656	15698.125000
1306.789063	15485.201172
1305.105469	15288.707031
1303.421875	15243.755859
1301.738281	15191.400391
1300.054688	15063.370117
1298.369141	14938.364258
1296.683594	14954.349609
1294.998047	14835.352539
1293.312500	14722.337891
1291.626953	14582.685547
1289.939453	14325.995117
1288.253906	14390.994141
1286.566406	14466.334961
1284.878906	14320.931641
1283.189453	14308.876953
1281.501953	14190.220703
1279.812500	14080.497070
1278.123047	13998.940430
1276.433594	14012.115234
1274.744141	13834.452148
1273.052734	13872.796875
1271.363281	13880.072266
1269.671875	13905.082031
1267.980469	13627.090820
1266.289063	13536.885742
1264.595703	13377.284180
1262.904297	13322.619141
1261.210938	13406.786133
1259.517578	13312.274414
1257.824219	13275.369141
1256.128906	13056.967773
1254.435547	12962.593750
1252.740234	13033.463867
1251.044922	12992.223633
1249.349609	12828.626953
1247.652344	12899.476563
1245.957031	12584.175781
1244.259766	12690.407227
1242.562500	12662.540039
1240.865234	12877.687500
1239.167969	12605.367188
1237.468750	12520.122070
1235.769531	12660.093750
1234.072266	12649.915039
1232.371094	12514.696289
1230.671875	12581.032227
1228.972656	12507.644531
1227.271484	12426.938477
1225.570313	12412.407227
1223.869141	12371.431641
1222.167969	12324.595703
1220.464844	12127.960938
1218.763672	12277.974609
1217.060547	12300.191406
1215.357422	12237.261719
1213.654297	12373.939453
1211.949219	12375.575195
1210.246094	12136.646484
1208.541016	12107.535156
1206.835938	11999.260742
1205.130859	11978.986328
1203.423828	11998.288086
1201.718750	11727.470703
1200.011719	11595.935547
1198.304688	11580.158203
1196.597656	11747.413086
1194.888672	11778.450195
1193.181641	11647.017578
1191.472656	11588.803711
1189.763672	11505.745117
1188.054688	11631.871094
1186.343750	11474.263672
1184.634766	11593.028320
1182.923828	11542.194336
1181.212891	11538.141602
1179.501953	11469.808594
1177.791016	11462.850586
1176.078125	11489.481445
1174.365234	11462.081055
1172.652344	11460.963867
1170.939453	11529.892578
1169.226563	11654.230469
1167.511719	11435.730469
1165.798828	11602.322266
1164.083984	11544.307617
1162.369141	11410.520508
1160.652344	11429.811523
1158.937500	11001.794922
1157.220703	11107.110352
1155.503906	10986.644531
1153.787109	10848.758789
1152.070313	10823.023438
1150.351563	10843.869141
1148.632813	10685.735352
1146.916016	10630.956055
1145.195313	10551.475586
1143.476563	10533.099609
1141.757813	10488.564453
1140.037109	10525.438477
1138.316406	10357.413086
1136.595703	10263.550781
1134.875000	10314.970703
1133.152344	10068.691406
1131.429688	9860.267578
1129.708984	10078.654297
1127.984375	9829.689453
1126.261719	9836.170898
1124.539063	9674.397461
1122.814453	9633.054688
1121.089844	9529.390625
1119.365234	9618.547852
1117.640625	9484.500000
1115.914063	9324.432617
1114.187500	9210.788086
1112.462891	9111.675781
1110.734375	9232.674805
1109.007813	9165.444336
1107.281250	9176.390625
1105.552734	9162.734375
1103.824219	9092.669922
1102.095703	8919.958984
1100.367188	9140.593750
1098.636719	8976.621094
1096.908203	8924.000977
1095.177734	9004.330078
1093.447266	9010.952148
1091.714844	8852.930664
1089.984375	8824.928711
1088.251953	8931.187500
1086.519531	9001.317383
1084.787109	8989.169922
1083.054688	8721.694336
1081.320313	8801.916016
1079.585938	8830.192383
1077.851563	8764.752930
1076.117188	8824.730469
1074.382813	8822.720703
1072.648438	8905.705078
1070.912109	9054.902344
1069.175781	8989.481445
1067.439453	9026.300781
1065.701172	9001.213867
1063.964844	8761.735352
1062.226563	8823.035156
1060.488281	8759.175781
1058.750000	8663.708984
1057.011719	8618.601563
1055.271484	8378.041016
1053.531250	8310.026367
1051.791016	8272.211914
1050.050781	8172.651855
1048.310547	8229.659180
1046.568359	8246.441406
1044.826172	8291.921875
1043.083984	8139.349609
1041.341797	8120.271484
1039.599609	8273.323242
1037.855469	8262.825195
1036.113281	8169.177246
1034.369141	8201.707031
1032.623047	8282.944336
1030.878906	8259.556641
1029.132813	8323.553711
1027.386719	8374.631836
1025.640625	8253.878906
1023.894531	8356.477539
1022.148438	8262.972656
1020.400391	8349.783203
1018.652344	8234.865234
1016.904297	8087.106934
1015.156250	8226.795898
1013.406250	8216.330078
1011.658203	8075.821289
1009.908203	8058.249512
1008.158203	8070.682617
1006.408203	8067.399902
1004.656250	8055.550781
1002.904297	8112.224121
1001.152344	8013.313965
999.400391	8014.324707
997.648438	8022.465820
995.896484	7893.693359
994.142578	7988.831543
992.388672	7944.228027
990.634766	7921.021484
988.878906	7913.497559
987.125000	7840.449707
985.369141	7972.515137
983.613281	7787.001953
981.857422	7854.958984
980.099609	7799.066895
978.343750	7858.451172
976.585938	7735.723145
974.828125	7829.226074
973.070313	7705.137695
971.310547	7800.024414
969.552734	7857.915039
967.792969	7813.473633
966.033203	7760.528809
964.273438	8000.175293
962.511719	8143.157227
960.750000	8182.442871
958.990234	8167.778320
957.226563	8319.132813
955.464844	8217.907227
953.703125	8235.862305
951.939453	8127.611328
950.175781	8037.838867
948.412109	7882.912109
946.648438	7822.992188
944.882813	7815.514160
943.117188	7587.096680
941.351563	7688.704590
939.585938	7603.400391
937.820313	7603.053223
936.052734	7597.045898
934.285156	7688.651855
932.517578	7684.040039
930.750000	7581.863770
928.982422	7703.094238
927.212891	7641.946289
925.443359	7474.850098
923.673828	7467.463867
921.904297	7622.501953
920.132813	7632.027832
918.361328	7555.435059
916.591797	7638.361816
914.818359	7434.807129
913.046875	7485.275879
911.275391	7587.904297
909.501953	7474.745117
907.728516	7712.661621
905.955078	7620.665527
904.179688	7523.075195
902.406250	7649.520996
900.630859	7530.841309
898.855469	7454.458984
897.080078	7455.538574
895.302734	7498.840332
893.525391	7588.555664
891.750000	7543.177246
889.970703	7534.387207
888.193359	7359.677246
886.416016	7266.584473
884.636719	7364.678711
882.857422	7377.012695
881.078125	7232.000488
879.296875	7271.043457
877.517578	7207.563477
875.736328	7249.399902
873.955078	7166.304199
872.173828	7000.458984
870.390625	7073.175293
868.609375	7037.862793
866.826172	7093.708496
865.042969	6989.714355
863.259766	6913.799316
861.474609	7104.148926
859.689453	7040.849121
857.904297	6997.186035
856.119141	7003.950684
854.333984	6979.913574
852.546875	7028.665527
850.761719	7024.222168
848.974609	6947.036133
847.185547	6917.437988
845.398438	6894.844238
843.609375	6953.340820
841.822266	6932.145508
840.031250	7056.276855
838.242188	6952.645508
836.453125	7012.467773
834.662109	6910.290039
832.871094	6833.287598
831.080078	6807.958984
829.289063	6919.383301
827.496094	7009.829590
825.703125	6861.745117
823.910156	7017.694824
822.117188	6868.282715
820.324219	7121.714355
818.529297	7161.842773
816.734375	6914.987793
814.939453	7123.661621
813.144531	7115.026367
811.347656	7159.291992
809.550781	7303.740234
807.755859	7171.232422
805.957031	7150.071777
804.160156	7172.033203
802.361328	6970.127441
800.564453	6892.033691
798.765625	6834.821777
796.964844	6726.228027
795.166016	6670.470215
793.365234	6805.000000
791.564453	6686.768555
789.763672	6740.718750
787.962891	6744.682617
786.160156	6822.180176
784.359375	6821.959961
782.556641	6681.671387
780.751953	6678.710449
778.949219	6706.246094
777.144531	6670.019043
775.339844	6589.472656
773.535156	6622.548828
771.730469	6704.078125
769.925781	6713.573242
768.119141	6651.084473
766.312500	6623.221680
764.505859	6659.014648
762.697266	6678.190918
760.890625	6579.812012
759.082031	6657.064941
757.273438	6793.717285
755.464844	6829.424316
753.654297	6945.246582
751.845703	7167.370117
750.035156	7236.104492
748.224609	7557.457031
746.412109	8091.220703
744.601563	8245.243164
742.789063	8462.655273
740.976563	8706.170898
739.164063	9208.817383
737.349609	10029.695313
735.537109	11186.495117
733.722656	12312.429688
731.908203	13151.275391
730.091797	12900.240234
728.277344	11825.863281
726.460938	10685.913086
724.644531	9377.208008
722.828125	8447.534180
721.009766	7750.795898
719.193359	7384.480957
717.375000	7113.218262
715.556641	6879.202148
713.736328	6763.495605
711.917969	6711.051270
710.097656	6665.500000
708.277344	6519.708984
706.457031	6536.013672
704.636719	6501.516602
702.814453	6532.913574
700.992188	6709.741699
699.169922	6647.790527
697.347656	6637.984375
695.523438	6655.605469
693.699219	6680.071777
691.875000	6701.784668
690.050781	6770.073242
688.226563	6910.931152
686.400391	6814.792480
684.574219	6747.452148
682.748047	6814.293457
680.921875	6663.502441
679.095703	6586.666504
677.267578	6615.195313
675.439453	6568.493652
673.611328	6573.768555
671.781250	6670.625488
669.953125	6490.014160
668.123047	6522.628418
666.292969	6571.617676
664.460938	6553.667480
662.630859	6683.178223
660.798828	6558.740234
658.966797	6566.732422
657.134766	6798.471191
655.302734	6728.653320
653.468750	6658.867676
651.634766	6805.889160
649.800781	6717.035156
647.966797	6848.981934
646.130859	6651.167480
644.294922	6734.031738
642.458984	6829.111328
640.623047	6649.140137
638.787109	6714.250000
636.949219	6731.701172
635.111328	6704.249023
633.273438	6646.887207
631.435547	6676.578613
629.595703	6676.346680
627.757813	6681.551270
625.917969	6594.353027
624.076172	6497.686523
622.236328	6497.495605
620.394531	6592.353516
618.552734	6536.480957
616.710938	6534.921875
614.869141	6484.516113
613.025391	6378.514648
611.183594	6451.585938
609.339844	6329.371094
607.494141	6253.303711
605.650391	6335.837891
603.804688	6140.569824
601.958984	6194.643555
600.113281	6057.736328
598.267578	6152.421875
596.419922	6069.734863
594.572266	6085.878906
592.724609	6104.720703
590.876953	6100.557617
589.027344	6178.889648
587.179688	6063.843750
585.330078	6116.463379
583.480469	5996.081055
581.628906	5985.190918
579.779297	6063.454590
577.927734	6101.167969
576.076172	6038.956055
574.222656	6121.198730
572.371094	6014.479492
570.517578	6107.480469
568.664063	6123.555176
566.810547	6134.228027
564.955078	6103.102051
563.101563	6263.382813
561.246094	6230.893066
559.390625	6168.779785
557.533203	6213.098145
555.677734	6157.750488
553.820313	6106.467773
551.962891	6009.448242
550.105469	5963.606934
548.246094	5946.037109
546.386719	5968.823730
544.527344	5936.469727
542.667969	5943.115234
540.808594	5934.973633
538.947266	5924.147949
537.085938	5999.300293
535.224609	5948.173340
533.363281	5878.272949
531.500000	5905.056152
529.638672	5886.196289
527.775391	5919.671875
525.910156	5856.550781
524.046875	6053.628418
522.181641	6242.566895
520.316406	6849.630859
518.451172	6756.862793
516.585938	6176.454102
514.718750	5913.777832
512.851563	5719.523438
510.984375	5746.269531
509.117188	5549.470703
507.250000	5620.404297
505.380859	5562.867676
503.511719	5663.188965
501.642578	5624.390625
499.771484	5644.434082
497.902344	5522.789063
496.031250	5485.386719
494.160156	5600.300293
492.287109	5590.944824
490.416016	5530.852051
488.542969	5449.427734
486.669922	5508.182129
484.796875	5572.246094
482.921875	5526.887695
481.046875	5521.562500
479.171875	5512.239258
477.296875	5513.584473
475.421875	5613.552734
473.544922	5473.634766
471.667969	5451.009277
469.791016	5638.817871
467.914063	5528.285645
466.035156	5562.901855
464.156250	5626.779785
462.277344	5604.143066
460.398438	5492.393555
458.519531	5569.540527
456.638672	5596.126465
454.757813	5613.394531
452.876953	5604.075684
450.994141	5675.806152
449.113281	5686.400391
447.230469	5572.160156
445.347656	5534.978027
443.462891	5553.561523
441.580078	5459.339355
439.695313	5533.652344
437.810547	5407.646484
435.925781	5424.915527
434.039063	5398.425781
432.152344	5426.291504
430.267578	5374.636719
428.378906	5340.229004
426.492188	5459.476074
424.603516	5430.360352
422.714844	5403.905762
420.826172	5372.169434
418.937500	5415.871094
417.046875	5430.447754
415.158203	5459.565430
413.265625	5406.688965
411.375000	5452.982910
409.484375	5491.324707
407.591797	5310.311523
405.699219	5355.273438
403.806641	5343.424805
401.912109	5429.287598
400.019531	5445.146973
