#Wave		#Intensity
1585.210938	8741.760742
1584.209961	8594.399414
1583.208984	8842.332031
1582.208008	8740.634766
1581.206055	8948.496094
1580.204102	8884.252930
1579.202148	8767.639648
1578.200195	8658.558594
1577.198242	8634.318359
1576.195313	8916.790039
1575.192383	8690.573242
1574.189453	8785.979492
1573.186523	8774.192383
1572.182617	8879.506836
1571.178711	8603.666016
1570.174805	8641.730469
1569.170898	8722.107422
1568.166992	8645.620117
1567.162109	8608.985352
1566.158203	8763.968750
1565.153320	8615.371094
1564.147461	8728.003906
1563.142578	8661.539063
1562.136719	8719.416992
1561.130859	8667.895508
1560.125000	8705.865234
1559.119141	8711.516602
1558.113281	8635.185547
1557.106445	8779.937500
1556.099609	8512.416992
1555.092773	8850.782227
1554.084961	8667.750977
1553.078125	8881.860352
1552.070313	8604.614258
1551.062500	8716.942383
1550.054688	8539.048828
1549.045898	8705.893555
1548.038086	8619.802734
1547.029297	8732.032227
1546.020508	8829.346680
1545.011719	8599.583984
1544.001953	8684.500000
1542.992188	8727.279297
1541.982422	8675.952148
1540.972656	8582.562500
1539.962891	8457.036133
1538.952148	8757.171875
1537.942383	8611.868164
1536.931641	8662.028320
1535.919922	8529.168945
1534.909180	8470.537109
1533.897461	8416.873047
1532.886719	8600.485352
1531.874023	8544.345703
1530.862305	8470.935547
1529.850586	8582.794922
1528.837891	8588.426758
1527.825195	8771.811523
1526.812500	8523.162109
1525.799805	8504.122070
1524.786133	8746.625000
1523.772461	8737.414063
1522.758789	8525.969727
1521.745117	8714.069336
1520.731445	8606.258789
1519.716797	8636.518555
1518.702148	8671.693359
1517.687500	8635.405273
1516.672852	8606.521484
1515.657227	8594.888672
1514.642578	8410.905273
1513.626953	8534.709961
1512.610352	8668.307617
1511.594727	8600.074219
1510.579102	8502.346680
1509.562500	8468.609375
1508.545898	8548.007813
1507.529297	8489.688477
1506.511719	8770.615234
1505.494141	8471.425781
1504.477539	8371.386719
1503.458984	8526.875000
1502.441406	8448.969727
1501.423828	8577.365234
1500.405273	8391.458008
1499.386719	8502.629883
1498.368164	8459.148438
1497.348633	8641.413086
1496.330078	8367.333984
1495.310547	8515.205078
1494.291016	8415.359375
1493.271484	8619.543945
1492.250977	8541.776367
1491.231445	8319.460938
1490.210938	8437.786133
1489.190430	8462.981445
1488.168945	8414.697266
1487.148438	8422.747070
1486.126953	8433.241211
1485.105469	8436.387695
1484.083984	8537.411133
1483.061523	8423.104492
1482.040039	8629.263672
1481.017578	8407.385742
1479.995117	8520.553711
1478.971680	8384.344727
1477.949219	8399.713867
1476.925781	8444.396484
1475.902344	8413.330078
1474.878906	8477.530273
1473.855469	8434.259766
1472.831055	8557.021484
1471.806641	8665.084961
1470.782227	8490.022461
1469.757813	8693.208984
1468.733398	8518.211914
1467.708008	8584.732422
1466.682617	8609.773438
1465.657227	8600.673828
1464.631836	8606.201172
1463.605469	8672.646484
1462.579102	8719.573242
1461.552734	8703.148438
1460.526367	8635.588867
1459.500000	8621.623047
1458.472656	8700.165039
1457.445313	8581.537109
1456.417969	8740.352539
1455.390625	8692.315430
1454.362305	8663.755859
1453.334961	8805.431641
1452.306641	8815.759766
1451.277344	8738.575195
1450.249023	8700.306641
1449.219727	8455.525391
1448.191406	8725.844727
1447.162109	8728.889648
1446.131836	8510.963867
1445.102539	8645.148438
1444.072266	8592.380859
1443.041992	8728.918945
1442.011719	8644.614258
1440.981445	8662.223633
1439.950195	8662.848633
1438.918945	8510.716797
1437.887695	8780.458008
1436.856445	8781.056641
1435.825195	8599.915039
1434.792969	8639.313477
1433.760742	8606.029297
1432.728516	8626.035156
1431.696289	8481.391602
1430.663086	8557.089844
1429.629883	8480.285156
1428.596680	8705.969727
1427.563477	8534.817383
1426.530273	8530.624023
1425.496094	8511.921875
1424.461914	8374.762695
1423.427734	8489.043945
1422.393555	8463.110352
1421.358398	8369.536133
1420.323242	8411.275391
1419.288086	8452.998047
1418.252930	8439.165039
1417.217773	8432.580078
1416.181641	8568.402344
1415.145508	8470.092773
1414.109375	8415.250977
1413.073242	8456.916992
1412.036133	8411.747070
1411.000000	8414.817383
1409.962891	8437.170898
1408.924805	8348.649414
1407.887695	8409.559570
1406.849609	8424.671875
1405.812500	8560.207031
1404.773438	8474.139648
1403.735352	8503.671875
1402.697266	8441.721680
1401.658203	8377.390625
1400.619141	8349.177734
1399.580078	8333.002930
1398.540039	8569.370117
1397.500977	8199.679688
1396.460938	8368.661133
1395.420898	8381.336914
1394.380859	8220.985352
1393.339844	8519.593750
1392.298828	8409.722656
1391.257813	8285.487305
1390.216797	8350.988281
1389.175781	8289.231445
1388.133789	8493.908203
1387.091797	8350.559570
1386.049805	8185.679199
1385.007813	8255.927734
1383.964844	8227.825195
1382.922852	8322.009766
1381.879883	8344.243164
1380.835938	8455.139648
1379.792969	8201.785156
1378.749023	8334.224609
1377.706055	8382.779297
1376.661133	8366.661133
1375.617188	8338.577148
1374.573242	8367.951172
1373.528320	8430.815430
1372.483398	8345.312500
1371.438477	8259.845703
1370.392578	8234.203125
1369.347656	8242.044922
1368.301758	8300.085938
1367.255859	8245.768555
1366.208984	8236.875000
1365.163086	8244.708008
1364.116211	8192.823242
1363.069336	8152.899414
1362.022461	8237.145508
1360.974609	8261.679688
1359.927734	8178.806641
1358.879883	8203.341797
1357.832031	8366.229492
1356.783203	8197.521484
1355.735352	8229.189453
1354.686523	8279.915039
1353.637695	8070.809082
1352.588867	8321.725586
1351.539063	8277.095703
1350.490234	8256.303711
1349.440430	8061.665527
1348.390625	8229.033203
1347.339844	8277.300781
1346.290039	8197.022461
1345.239258	8090.601563
1344.188477	8072.251465
1343.137695	8103.858887
1342.085938	8083.134277
1341.034180	8266.890625
1339.982422	8255.648438
1338.930664	8184.994629
1337.878906	8259.312500
1336.826172	8210.066406
1335.773438	8251.095703
1334.720703	8235.115234
1333.667969	8273.746094
1332.614258	8191.306641
1331.561523	8156.362793
1330.507813	8133.295898
1329.453125	8188.518066
1328.399414	8210.513672
1327.344727	8087.861816
1326.290039	8211.804688
1325.235352	8205.338867
1324.180664	8236.789063
1323.125000	8097.647949
1322.070313	8278.329102
1321.014648	8210.281250
1319.958008	8111.481934
1318.902344	8140.548340
1317.845703	8228.767578
1316.789063	8231.768555
1315.732422	8116.485840
1314.675781	8358.386719
1313.618164	8245.489258
1312.560547	8269.758789
1311.502930	8104.926758
1310.445313	8148.120117
1309.386719	8148.766602
1308.329102	8281.692383
1307.270508	8142.972168
1306.210938	8233.341797
1305.152344	8359.082031
1304.092773	8213.350586
1303.033203	8206.900391
1301.973633	8245.276367
1300.914063	8153.908691
1299.853516	8423.378906
1298.792969	8223.557617
1297.732422	8313.752930
1296.671875	8076.331543
1295.611328	8258.409180
1294.549805	8023.454102
1293.488281	8101.837402
1292.426758	7923.525879
1291.364258	8063.104492
1290.302734	8068.462891
1289.240234	8196.185547
1288.177734	8029.765137
1287.114258	7952.798340
1286.051758	8066.352051
1284.988281	8109.320801
1283.924805	8126.412598
1282.861328	8068.290039
1281.796875	7989.043945
1280.732422	8093.069824
1279.667969	8065.522461
1278.603516	8084.951172
1277.539063	7942.376953
1276.473633	8072.142090
1275.408203	8068.087402
1274.342773	8035.878906
1273.277344	7858.247559
1272.210938	8016.061035
1271.145508	8108.154297
1270.079102	8195.519531
1269.011719	7858.625977
1267.945313	8039.736328
1266.877930	8045.061523
1265.810547	8045.699219
1264.743164	7912.854980
1263.674805	7897.130371
1262.607422	7876.730469
1261.539063	7868.039551
1260.470703	7826.595215
1259.401367	7998.042969
1258.333008	7947.231934
1257.263672	7917.486816
1256.194336	7869.050781
1255.125000	7893.091309
1254.054688	7816.638184
1252.985352	7924.786133
1251.915039	7953.469238
1250.843750	7975.133789
1249.773438	7814.671875
1248.702148	7822.349609
1247.630859	7816.020508
1246.559570	7963.693848
1245.488281	7922.343262
1244.416016	7867.015137
1243.343750	7972.608398
1242.271484	7891.647461
1241.199219	7834.028809
1240.125977	7876.639648
1239.053711	7777.109863
1237.980469	7978.110840
1236.906250	7948.466797
1235.833008	7823.371094
1234.758789	7980.002441
1233.684570	7829.350586
1232.610352	7746.242188
1231.536133	7856.260254
1230.460938	7980.186035
1229.385742	7873.842773
1228.310547	7755.919434
1227.235352	7844.918945
1226.159180	7854.867188
1225.083008	7785.813477
1224.006836	7946.758789
1222.930664	7815.007813
1221.853516	7894.609375
1220.777344	7755.959961
1219.700195	7805.366699
1218.622070	7810.662598
1217.544922	7806.675781
1216.466797	7918.663574
1215.388672	7613.187988
1214.310547	7732.123047
1213.232422	7765.241699
1212.153320	7656.979004
1211.074219	7947.284668
1209.995117	7713.937012
1208.916016	7709.972656
1207.835938	7939.875488
1206.755859	7836.317871
1205.675781	7603.190918
1204.595703	7726.521973
1203.514648	7715.615723
1202.434570	7704.713379
1201.353516	7730.815430
1200.271484	7733.785156
1199.190430	7672.029785
1198.108398	7825.228516
1197.026367	7788.894531
1195.944336	7715.615234
1194.862305	7614.651367
1193.779297	7617.638184
1192.696289	7696.806641
1191.613281	7732.086914
1190.530273	7695.815918
1189.446289	7673.402832
1188.362305	7699.437012
1187.278320	7617.072266
1186.194336	7700.746582
1185.109375	7632.246582
1184.024414	7563.774902
1182.939453	7686.575195
1181.854492	7825.447266
1180.768555	7791.523926
1179.683594	7681.626953
1178.597656	7551.057129
1177.510742	7639.200195
1176.424805	7639.860352
1175.337891	7635.918457
1174.250977	7666.480469
1173.164063	7657.933594
1172.077148	7699.972168
1170.989258	7631.654785
1169.901367	7595.541016
1168.813477	7736.365234
1167.724609	7635.921387
1166.636719	7604.421387
1165.547852	7547.675781
1164.458984	7562.121582
1163.369141	7654.598145
1162.280273	7593.287109
1161.190430	7518.236328
1160.100586	7505.148926
1159.010742	7650.300293
1157.919922	7561.527344
1156.829102	7667.634766
1155.738281	7663.690430
1154.647461	7666.621094
1153.555664	7522.939453
1152.464844	7482.382324
1151.373047	7608.997559
1150.280273	7568.437988
1149.188477	7575.960449
1148.095703	7510.252930
1147.002930	7497.192871
1145.910156	7502.436523
1144.817383	7537.406250
1143.723633	7618.086914
1142.629883	7728.448242
1141.536133	7690.212891
1140.441406	7588.017578
1139.347656	7417.334961
1138.252930	7495.667480
1137.158203	7567.115234
1136.062500	7631.682617
1134.967773	7664.268555
1133.872070	7605.562988
1132.776367	7667.797363
1131.679688	7663.857422
1130.583984	7639.394531
1129.487305	7544.264160
1128.390625	7611.014160
1127.292969	7591.134766
1126.196289	7666.957520
1125.098633	7551.399414
1124.000977	7743.347168
1122.903320	7757.608398
1121.804688	7660.315430
1120.706055	7590.375488
1119.607422	7561.424316
1118.508789	7671.259277
1117.409180	7610.458496
1116.310547	7592.889648
1115.210938	7668.541504
1114.110352	7348.655762
1113.010742	7447.051758
1111.910156	7493.147461
1110.809570	7405.202637
1109.708984	7437.660156
1108.607422	7506.431641
1107.506836	7532.041504
1106.405273	7634.804688
1105.303711	7433.467773
1104.201172	7567.966309
1103.098633	7405.287598
1101.996094	7544.268066
1100.893555	7413.402832
1099.791016	7438.989258
1098.687500	7589.200195
1097.583984	7562.627441
1096.480469	7556.451172
1095.376953	7563.864746
1094.272461	7408.256836
1093.167969	7476.816406
1092.063477	7493.293457
1090.958008	7622.895020
1089.853516	7381.444824
1088.748047	7395.667969
1087.642578	7563.644531
1086.536133	7467.046875
1085.430664	7555.826660
1084.324219	7518.023438
1083.217773	7360.498535
1082.110352	7535.072266
1081.003906	7388.901855
1079.896484	7518.237793
1078.789063	7482.738281
1077.680664	7384.064453
1076.573242	7474.958496
1075.464844	7401.141602
1074.356445	7458.162109
1073.247070	7402.417969
1072.138672	7405.309082
1071.029297	7552.440430
1069.919922	7451.644531
1068.809570	7519.852051
1067.700195	7351.536621
1066.589844	7620.146973
1065.479492	7566.699219
1064.368164	7418.739746
1063.257813	7635.398926
1062.146484	7309.750000
1061.035156	7456.606934
1059.922852	7450.476563
1058.811523	7491.563965
1057.699219	7458.452637
1056.586914	7521.992676
1055.473633	7414.740234
1054.361328	7383.912109
1053.248047	7254.276855
1052.134766	7360.466309
1051.021484	7482.322754
1049.907227	7328.060547
1048.792969	7366.843750
1047.678711	7405.609375
1046.564453	7511.645996
1045.449219	7413.571289
1044.333984	7335.717285
1043.218750	7334.106445
1042.103516	7410.930176
1040.987305	7308.479980
1039.871094	7387.514648
1038.754883	7470.992188
1037.638672	7370.833984
1036.521484	7460.993164
1035.404297	7381.021484
1034.287109	7354.785645
1033.169922	7310.664063
1032.051758	7534.947754
1030.933594	7421.486816
1029.815430	7276.777344
1028.697266	7440.571289
1027.578125	7530.551270
1026.458984	7499.850098
1025.339844	7366.416016
1024.220703	7344.695313
1023.100586	7416.753906
1021.980469	7430.744141
1020.860352	7404.558594
1019.740234	7398.464355
1018.619141	7349.989746
1017.498047	7381.821289
1016.376953	7344.518555
1015.255859	7316.148438
1014.133789	7325.677734
1013.011719	7361.939941
1011.889648	7273.435059
1010.767578	7229.512695
1009.644531	7201.195801
1008.521484	7250.808594
1007.398438	7302.624512
1006.274414	7280.984375
1005.151367	7372.814941
1004.027344	7217.711914
1002.902344	7305.067383
1001.778320	7316.791992
1000.653320	7290.723145
999.528320	7291.333496
998.403320	7291.942383
997.278320	7303.656738
996.152344	7290.936523
995.026367	7264.899414
993.900391	7336.545898
992.773438	7332.702148
991.646484	7286.701660
990.519531	7087.653809
989.392578	7099.391113
988.265625	7202.034668
987.137695	7138.365723
986.009766	7245.387207
984.881836	7099.747070
983.752930	7293.129395
982.624023	7404.472656
981.495117	7349.684082
980.366211	7219.645508
979.236328	7315.435059
978.106445	7143.414063
976.976563	7073.242188
975.846680	7091.579590
974.715820	7293.461426
973.585938	7227.723145
972.454102	7325.589844
971.323242	7189.151855
970.191406	7112.431152
969.060547	7163.867188
967.927734	7155.648926
966.795898	7025.991699
965.663086	7075.203125
964.530273	7075.836426
963.397461	7184.591309
962.264648	7266.823730
961.130859	7170.366699
959.997070	7287.845703
958.863281	7140.719727
957.729492	7176.599609
956.594727	7219.074219
955.459961	7098.497070
954.325195	7224.669434
953.189453	7245.081055
952.053711	7170.812012
950.917969	7156.006348
949.782227	7240.237793
948.646484	7258.425293
947.509766	7217.212402
946.373047	7321.164551
945.235352	7161.223633
944.098633	7256.348145
942.960938	7166.819336
941.823242	7127.866699
940.685547	7148.242676
939.546875	7241.086426
938.408203	7204.336914
937.269531	6967.832520
936.129883	7150.638672
934.991211	7249.979004
933.851563	7171.575195
932.711914	7141.459473
931.571289	7185.912598
930.431641	7206.229004
929.291016	7178.315430
928.149414	7343.253418
927.008789	7175.104492
925.867188	7318.064453
924.725586	7134.666016
923.583984	7347.630371
922.441406	7232.162109
921.299805	7127.687012
920.157227	7117.339355
919.013672	7074.184082
917.871094	7271.611816
916.727539	7134.421875
915.583984	7071.616211
914.439453	7087.515137
913.295898	7081.556152
912.151367	7014.433594
911.006836	7141.717285
909.861328	7028.756348
908.716797	7051.192871
907.571289	7073.618652
906.424805	7076.395508
905.279297	7072.625977
904.132813	7186.635254
902.986328	7097.798340
901.839844	7070.043457
900.692383	7131.664551
899.545898	7127.883301
898.398438	7263.535645
897.250000	7166.065430
896.102539	7072.993652
894.954102	7112.770020
893.805664	7041.517578
892.656250	7015.996582
891.507813	7040.526855
890.358398	7112.900391
889.208984	7039.534668
888.058594	7229.282227
886.908203	7145.053711
885.758789	7165.178223
884.607422	6959.326172
883.457031	6994.687988
882.305664	6936.646973
881.154297	7071.875488
880.002930	6959.572266
878.850586	7188.056641
877.698242	7099.644531
876.545898	7087.197754
875.393555	6803.650879
874.240234	6845.484375
873.086914	6961.005371
871.933594	7074.306152
870.780273	6951.365234
869.625977	6971.460938
868.471680	6961.224609
867.317383	7046.270508
866.162109	7005.711426
865.007813	7062.569824
863.852539	6996.057129
862.696289	7068.035156
861.541016	7053.460938
860.384766	7149.179688
859.228516	7058.922852
858.072266	7022.743652
856.915039	6949.842773
855.757813	6963.395996
854.600586	6983.422363
853.442383	7053.108887
852.285156	6934.924316
851.126953	6963.575684
849.968750	7132.489746
848.809570	6919.431152
847.650391	7008.464355
846.491211	7045.697754
845.332031	6888.861328
844.171875	6999.395508
843.012695	7084.017090
841.851563	6927.276855
840.691406	6891.240723
839.530273	6889.680176
838.369141	6877.353027
837.208008	6989.889160
836.046875	6953.869141
834.884766	6872.678711
833.722656	6825.944336
832.560547	6843.753906
831.397461	6792.745117
830.234375	6933.091309
829.071289	6867.039551
827.908203	6846.142578
826.744141	6943.412109
825.580078	6752.826172
824.416016	6882.282715
823.251953	6863.545410
822.086914	6939.256836
820.921875	6982.745117
819.756836	6704.401855
818.590820	6872.327637
817.425781	6795.711426
816.259766	6884.213379
815.092773	6751.897949
813.926758	6831.796387
812.759766	6678.127441
811.592773	6922.938965
810.424805	6683.657227
809.257813	6694.983398
808.089844	6796.207031
806.920898	6646.997559
805.752930	6761.021973
804.583984	6731.675293
803.415039	6734.420898
802.246094	6722.197754
801.076172	6735.630859
799.906250	6717.000488
798.736328	6677.011719
797.566406	6566.546875
796.395508	6746.583496
795.224609	6834.724609
794.053711	6679.469238
792.881836	6709.960449
791.710938	6608.146484
790.538086	6736.768066
789.366211	6760.825195
788.194336	6659.067383
787.021484	6723.634277
785.848633	6607.011230
784.674805	6660.905762
783.500977	6885.200195
782.327148	6749.450195
781.153320	6694.676270
779.979492	6669.730957
778.804688	6774.627930
777.629883	6739.035156
776.454102	6709.840820
775.279297	6644.500977
774.103516	6647.236816
772.927734	6639.340820
771.750977	6523.049316
770.575195	6746.806641
769.398438	6798.377930
768.220703	6790.452148
767.043945	6646.624512
765.866211	6604.767578
764.688477	6632.973633
763.510742	6828.809570
762.332031	6689.345215
761.153320	6554.186523
759.974609	6612.064941
758.794922	6657.195313
757.616211	6611.159668
756.436523	6616.004883
755.255859	6644.152344
754.076172	6697.704590
752.895508	6658.053223
751.714844	6620.536133
750.533203	6517.417480
749.352539	6585.761230
748.170898	6628.684570
746.988281	6572.168945
745.806641	6602.385742
744.624023	6647.387695
743.441406	6472.531250
742.258789	6697.175781
741.075195	6602.675293
739.891602	6523.004395
738.708008	6551.075684
737.523438	6553.796387
736.339844	6554.404785
735.155273	6576.116699
733.969727	6532.409668
732.785156	6526.692383
731.599609	6577.919922
730.414063	6525.807129
729.227539	6577.010254
728.041992	6484.876953
726.855469	6561.349609
725.667969	6469.261230
724.481445	6446.715820
723.293945	6565.254883
722.106445	6496.383789
720.918945	6524.356934
719.730469	6548.108398
718.541992	6515.049805
717.353516	6519.862793
716.164063	6486.824219
714.975586	6544.196289
713.786133	6471.233398
712.595703	6490.758789
711.406250	6405.236328
710.215820	6370.159668
709.025391	6368.695313
707.833984	6388.224609
706.642578	6365.767090
705.451172	6408.369141
704.259766	6377.524902
703.068359	6495.609375
701.875977	6393.463867
700.683594	6471.656738
699.490234	6463.880371
698.297852	6462.393066
697.104492	6437.860840
695.910156	6666.773926
694.716797	6545.880371
693.522461	6479.474121
692.328125	6446.586914
691.132813	6386.510742
689.938477	6372.487793
688.743164	6396.119629
687.547852	6426.013184
686.351563	6533.246582
685.155273	6343.627441
683.958984	6551.133301
682.762695	6474.413086
681.565430	6289.114746
680.368164	6490.223633
679.170898	6384.340332
677.973633	6470.534180
676.775391	6521.212402
675.577148	6498.846191
674.378906	6451.459473
673.179688	6568.836914
671.980469	6331.732422
670.781250	6440.744629
669.581055	6478.853027
668.381836	6550.278320
667.181641	6432.122559
665.980469	6488.947754
664.780273	6504.106445
663.579102	6444.323730
662.377930	6415.783203
661.175781	6507.926758
659.973633	6643.708984
658.771484	6702.482910
657.569336	6644.800293
656.367188	6562.200195
655.164063	6510.809570
653.960938	6380.491211
652.756836	6588.812988
651.552734	6549.911133
650.348633	6685.428711
649.144531	6573.870117
647.939453	6572.351563
646.735352	6558.384766
645.529297	6604.578613
644.324219	6659.045410
643.118164	6669.946777
641.912109	6631.094238
640.706055	6590.186035
639.499023	6621.813477
638.292969	6527.068848
637.084961	6633.249512
635.877930	6536.474121
634.669922	6429.393555
633.461914	6605.884766
632.253906	6523.665039
631.044922	6462.168457
629.836914	6553.737305
628.626953	6475.720703
627.417969	6550.706055
626.208008	6387.992676
624.998047	6431.970703
623.788086	6339.592285
622.577148	6451.711914
621.366211	6386.212402
620.155273	6407.441895
618.944336	6500.892578
617.732422	6354.957031
616.520508	6442.187500
615.308594	6418.010742
614.095703	6476.319336
612.882813	6268.681152
611.669922	6463.016602
610.457031	6397.646973
609.243164	6453.844238
608.029297	6501.777344
606.815430	6426.147949
605.600586	6315.558105
604.385742	6410.823730
603.170898	6464.893066
601.955078	6475.738281
600.740234	6484.521484
599.524414	6394.605469
598.307617	6300.619141
597.091797	6422.470703
595.875000	6383.998047
594.658203	6394.844238
593.440430	6294.781738
592.222656	6389.827637
591.004883	6312.393066
589.787109	6438.174805
588.568359	6366.919434
587.349609	6326.467773
586.130859	6320.899414
584.912109	6335.837891
583.692383	6317.969238
582.472656	6371.840820
581.251953	6347.824707
580.032227	6340.207520
578.811523	6248.623047
577.589844	6296.315918
576.369141	6337.845215
575.147461	6371.168457
573.925781	6336.952637
572.703125	6364.122559
571.481445	6342.194336
570.258789	6487.944336
569.035156	6451.687500
567.812500	6538.073730
566.588867	6434.391602
565.365234	6240.872070
564.140625	6476.338867
562.916992	6372.742188
561.692383	6401.884766
560.466797	6439.177734
559.242188	6476.452637
558.016602	6458.629883
556.791016	6371.471680
555.564453	6518.843750
554.337891	6456.173828
553.111328	6432.256836
551.884766	6485.780273
550.657227	6559.649902
549.429688	6423.706543
548.202148	6538.279785
546.974609	6502.154785
545.746094	6594.268066
544.517578	6657.851074
543.288086	6465.079590
542.058594	6514.425293
540.829102	6614.582031
539.599609	6446.348633
538.370117	6483.468262
537.139648	6414.908691
535.909180	6500.773438
534.677734	6592.691406
533.446289	6495.725098
532.214844	6597.751465
530.983398	6419.644043
529.750977	6667.737305
528.519531	6621.558594
527.286133	6504.414063
526.053711	6504.931641
524.820313	6633.165527
523.586914	6682.294922
522.353516	6802.322266
521.119141	6772.380859
519.884766	6497.383789
518.650391	6514.099121
517.415039	6470.073730
516.179688	6719.542480
514.944336	6697.747070
513.708984	6578.856934
