#Wave		#Intensity
2109.224609	3789.239502
2107.712891	3676.769775
2106.201172	3669.360107
2104.687500	3668.566650
2103.175781	3661.162109
2101.662109	3673.591309
2100.150391	3611.666992
2098.636719	3744.684570
2097.123047	3667.908691
2095.607422	3736.463379
2094.093750	3677.880615
2092.578125	3823.972412
2091.064453	3712.594727
2089.548828	3655.704834
2088.033203	3625.228760
2086.517578	3612.904541
2085.000000	3575.856201
2083.484375	3631.126953
2081.966797	3562.780518
2080.449219	3637.800781
2078.931641	3637.017578
2077.414063	3629.647461
2075.894531	3633.805908
2074.376953	3743.315186
2072.857422	3679.970459
2071.337891	3717.023926
2069.818359	3633.971191
2068.298828	3661.150391
2066.777344	3569.923340
2065.257813	3611.900635
2063.736328	3658.791016
2062.214844	3722.094482
2060.693359	3612.860352
2059.171875	3669.575928
2057.648438	3601.456055
2056.126953	3658.149902
2054.603516	3619.609619
2053.080078	3664.786621
2051.556641	3662.360107
2050.033203	3633.686523
2048.507813	3644.388672
2046.984375	3655.086426
2045.458984	3626.432861
2043.933594	3686.302246
2042.408203	3677.319092
2040.882813	3701.107422
2039.355469	3715.057373
2037.830078	3684.784180
2036.302734	3675.808838
2034.775391	3630.823975
2033.248047	3584.221680
2031.718750	3637.452393
2030.191406	3633.402832
2028.662109	3599.914551
2027.134766	3684.177002
2025.605469	3655.596680
2024.076172	3617.221436
2022.544922	3711.231445
2021.015625	3715.340332
2019.484375	3681.877197
2017.955078	3628.830566
2016.423828	3569.275635
2014.892578	3620.751953
2013.359375	3647.724854
2011.828125	3645.314697
2010.294922	3670.639404
2008.761719	3607.876709
2007.230469	3623.414307
2005.695313	3710.680664
2004.162109	3594.159424
2002.628906	3686.283691
2001.093750	3608.920654
1999.558594	3676.568115
1998.023438	3582.953613
1996.488281	3644.064697
1994.953125	3708.405518
1993.417969	3689.712402
1991.880859	3648.246094
1990.343750	3652.350098
1988.806641	3747.538330
1987.269531	3712.590820
1985.732422	3682.535645
1984.193359	3657.369873
1982.656250	3650.091064
1981.117188	3629.817139
1979.578125	3617.673828
1978.039063	3652.635254
1976.500000	3517.085693
1974.958984	3636.471436
1973.417969	3666.537109
1971.878906	3630.057861
1970.337891	3585.481934
1968.796875	3677.176758
1967.253906	3559.633057
1965.712891	3654.536865
1964.169922	3647.276855
1962.626953	3586.537598
1961.083984	3601.979248
1959.541016	3573.674805
1957.998047	3644.180176
1956.455078	3632.071777
1954.910156	3607.016602
1953.365234	3570.641846
1951.820313	3675.071289
1950.275391	3624.136230
1948.730469	3607.191650
1947.183594	3577.316406
1945.638672	3591.109619
1944.091797	3587.114990
1942.544922	3642.921387
1940.998047	3638.917480
1939.449219	3672.071777
1937.902344	3640.605225
1936.353516	3530.024902
1934.804688	3639.062012
1933.255859	3646.361572
1931.707031	3681.092773
1930.158203	3577.051270
1928.607422	3594.037598
1927.058594	3493.283936
1925.507813	3632.826172
1923.957031	3583.693848
1922.406250	3513.629395
1920.853516	3609.570313
1919.302734	3473.475830
1917.750000	3635.424561
1916.197266	3565.407959
1914.644531	3538.892334
1913.091797	3615.409424
1911.539063	3627.519287
1909.984375	3658.932129
1908.431641	3662.983887
1906.876953	3570.532959
1905.322266	3600.329590
1903.767578	3626.898193
1902.210938	3579.518311
1900.656250	3614.114990
1899.099609	3648.696777
1897.542969	3733.059326
1895.986328	3613.427979
1894.429688	3630.325684
1892.873047	3520.398438
1891.314453	3644.840088
1889.755859	3624.813965
1888.199219	3590.357910
1886.640625	3655.360107
1885.080078	3579.218506
1883.521484	3596.097412
1881.960938	3614.572266
1880.402344	3625.026367
1878.841797	3611.442139
1877.281250	3488.934570
1875.720703	3558.665771
1874.158203	3586.735840
1872.597656	3502.731934
1871.035156	3593.222656
1869.472656	3526.854980
1867.910156	3434.917236
1866.347656	3530.163330
1864.783203	3471.846436
1863.220703	3607.015625
1861.656250	3527.926270
1860.091797	3508.002930
1858.527344	3552.001221
1856.962891	3533.678467
1855.396484	3643.136475
1853.832031	3591.268311
1852.265625	3505.895752
1850.699219	3556.232178
1849.132813	3526.756348
1847.566406	3516.438477
1845.998047	3530.052002
1844.431641	3511.763672
1842.863281	3552.478271
1841.294922	3559.698730
1839.726563	3474.475586
1838.156250	3551.821289
1836.587891	3605.237549
1835.017578	3472.274902
1833.449219	3546.386719
1831.878906	3536.085205
1830.306641	3546.480957
1828.736328	3505.946045
1827.166016	3513.161133
1825.593750	3595.139404
1824.021484	3553.028809
1822.449219	3522.066650
1820.876953	3619.888184
1819.304688	3595.282471
1817.730469	3608.825195
1816.158203	3636.660645
1814.583984	3556.471680
1813.009766	3527.135254
1811.435547	3618.479736
1809.859375	3620.890625
1808.285156	3593.145508
1806.708984	3597.147217
1805.132813	3496.443848
1803.556641	3587.697754
1801.980469	3517.167480
1800.404297	3518.010254
1798.826172	3507.756836
1797.248047	3603.684814
1795.671875	3575.989014
1794.093750	3502.366943
1792.513672	3583.981201
1790.935547	3548.389404
1789.355469	3509.646729
1787.777344	3486.747314
1786.197266	3568.295166
1784.617188	3586.526123
1783.035156	3558.879395
1781.455078	3573.941406
1779.873047	3576.348633
1778.292969	3526.590820
1776.710938	3626.990723
1775.128906	3536.161377
1773.544922	3543.312988
1771.962891	3564.675781
1770.378906	3519.709229
1768.794922	3604.216553
1767.212891	3568.730469
1765.626953	3520.634766
1764.042969	3608.243164
1762.458984	3607.480713
1760.873047	3534.174072
1759.287109	3579.152100
1757.701172	3472.777832
1756.115234	3593.399902
1754.529297	3580.034668
1752.941406	3686.404297
1751.355469	3499.768555
1749.767578	3626.581299
1748.179688	3641.558350
1746.591797	3628.196289
1745.001953	3531.432129
1743.414063	3540.125732
1741.824219	3596.007324
1740.234375	3618.837891
1738.644531	3734.429443
1737.054688	3625.167725
1735.462891	3600.825195
1733.873047	3574.921143
1732.281250	3630.723389
1730.689453	3724.198975
1729.097656	3654.313721
1727.505859	3587.597900
1725.912109	3670.034912
1724.320313	3738.312012
1722.726563	3745.366211
1721.132813	3743.005127
1719.539063	3619.877441
1717.945313	3659.881104
1716.349609	3627.751709
1714.755859	3727.298096
1713.160156	3663.825928
1711.564453	3768.022217
1709.968750	3787.587891
1708.371094	3852.561279
1706.775391	3931.598877
1705.177734	3794.574951
1703.580078	3735.863037
1701.982422	3938.489990
1700.384766	3868.821289
1698.787109	3828.899414
1697.187500	3851.544678
1695.587891	3849.165283
1693.990234	3723.301758
1692.390625	3794.400146
1690.789063	3848.281250
1689.189453	3789.667725
1687.587891	3748.258301
1685.988281	3792.745605
1684.386719	3810.675049
1682.785156	3850.447510
1681.181641	3868.356445
1679.580078	3850.374756
1677.976563	3896.351807
1676.373047	3961.022705
1674.769531	3921.204346
1673.166016	3973.371582
1671.562500	3988.113281
1669.957031	3954.546387
1668.353516	4084.562744
1666.748047	4024.511963
1665.142578	4042.343506
1663.537109	4001.008301
1661.929688	4177.597656
1660.324219	4196.940918
1658.716797	4112.035645
1657.109375	4304.042969
1655.501953	4338.897949
1653.894531	4345.750488
1652.285156	4329.282227
1650.677734	4399.854492
1649.068359	4442.426758
1647.458984	4517.604980
1645.849609	4476.262207
1644.240234	4448.912598
1642.628906	4486.779785
1641.019531	4608.448730
1639.408203	4560.913086
1637.796875	4556.840332
1636.185547	4545.013184
1634.572266	4589.021484
1632.960938	4569.438965
1631.347656	4597.920898
1629.734375	4693.035156
1628.121094	4707.531738
1626.507813	4735.965332
1624.894531	4708.625977
1623.279297	4808.280273
1621.664063	4881.571777
1620.048828	4950.187988
1618.433594	5003.298828
1616.818359	5023.894531
1615.203125	5188.343750
1613.585938	5244.462402
1611.968750	5299.009766
1610.351563	5540.590820
1608.734375	5476.040527
1607.117188	5430.061035
1605.498047	5354.746582
1603.878906	5203.777832
1602.261719	5269.072266
1600.640625	5288.020020
1599.021484	5333.200684
1597.402344	5219.402832
1595.781250	5190.516113
1594.162109	5166.269043
1592.541016	5179.047363
1590.919922	5261.208008
1589.296875	5277.042969
1587.675781	5332.945313
1586.052734	5233.183594
1584.429688	5327.586426
1582.806641	5223.246582
1581.183594	5175.931152
1579.560547	5111.698730
1577.935547	5162.943848
1576.312500	5151.067383
1574.687500	5180.740234
1573.062500	5087.331543
1571.435547	4984.733887
1569.810547	5088.231445
1568.183594	5053.321289
1566.558594	5099.888184
1564.931641	5129.531250
1563.304688	5134.579102
1561.675781	5168.809570
1560.048828	5198.417480
1558.419922	5215.729492
1556.791016	5311.321777
1555.162109	5371.573730
1553.533203	5482.435059
1551.904297	5513.476563
1550.273438	5624.258789
1548.642578	5561.716797
1547.011719	5516.065430
1545.380859	5522.546875
1543.750000	5532.089844
1542.119141	5468.087402
1540.486328	5359.689941
1538.853516	5187.018066
1537.220703	5095.569336
1535.587891	4987.320801
1533.955078	4963.293457
1532.320313	4862.769531
1530.685547	4782.175781
1529.052734	4753.618164
1527.416016	4897.866699
1525.781250	4774.508789
1524.146484	4779.597168
1522.509766	4903.879883
1520.873047	4948.661133
1519.236328	4924.685059
1517.599609	5045.800781
1515.962891	5118.004883
1514.324219	5193.230469
1512.687500	5240.951660
1511.048828	5163.530762
1509.410156	5087.668945
1507.771484	5107.926758
1506.130859	4969.588379
1504.492188	4927.355469
1502.851563	4892.761719
1501.210938	4870.373535
1499.570313	4799.240234
1497.927734	4720.521484
1496.287109	4880.933105
1494.644531	4828.113281
1493.001953	4676.369141
1491.359375	4664.707520
1489.716797	4747.389648
1488.074219	4610.973145
1486.429688	4637.355469
1484.785156	4601.380859
1483.140625	4703.767578
1481.496094	4666.273438
1479.851563	4692.619629
1478.207031	4642.988770
1476.560547	4748.314453
1474.914063	4753.363281
1473.267578	4837.362305
1471.621094	4781.669434
1469.972656	4783.671387
1468.326172	4752.291016
1466.677734	4763.399414
1465.029297	4756.302734
1463.380859	4878.098633
1461.732422	4749.697754
1460.082031	4741.091797
1458.431641	4761.280762
1456.783203	4719.344238
1455.132813	4697.116699
1453.480469	4570.405762
1451.830078	4486.143066
1450.177734	4358.018555
1448.527344	4343.453613
1446.875000	4336.460449
1445.220703	4338.545898
1443.568359	4296.770020
1441.916016	4288.278320
1440.261719	4382.588867
1438.607422	4248.632324
1436.953125	4247.710938
1435.298828	4195.422852
1433.642578	4122.010742
1431.988281	4086.383057
1430.332031	4109.652344
1428.675781	4051.400391
1427.019531	4076.175781
1425.361328	3999.849854
1423.705078	4097.031738
1422.046875	4124.796387
1420.388672	4211.353516
1418.730469	4257.169922
1417.072266	4328.588379
1415.412109	4074.497559
1413.753906	4064.572021
1412.093750	4033.563721
1410.433594	4083.885010
1408.773438	4000.191895
1407.111328	4152.851563
1405.451172	4206.122559
1403.789063	4321.056152
1402.126953	4452.485840
1400.464844	4553.780273
1398.802734	4560.305176
1397.138672	4628.459961
1395.474609	4555.311035
1393.812500	4479.188477
1392.146484	4398.591797
1390.482422	4328.543457
1388.818359	4377.151367
1387.152344	4347.671875
1385.486328	4303.195313
1383.820313	4383.288574
1382.154297	4478.349121
1380.488281	4621.366699
1378.820313	4681.841797
1377.154297	4790.267090
1375.486328	4903.142090
1373.818359	4752.205078
1372.148438	4808.101563
1370.480469	4763.608398
1368.810547	4753.579590
1367.140625	4584.837891
1365.470703	4582.337402
1363.800781	4591.810547
1362.130859	4518.979980
1360.458984	4459.645508
1358.787109	4461.659668
1357.115234	4424.792969
1355.443359	4443.258789
1353.771484	4479.652344
1352.097656	4529.479004
1350.423828	4695.819824
1348.751953	4905.405273
1347.076172	5019.320313
1345.402344	5282.492676
1343.728516	5405.230957
1342.052734	5730.883301
1340.376953	5935.533203
1338.701172	6138.600586
1337.025391	6325.172363
1335.347656	6690.594238
1333.671875	6617.565918
1331.994141	6762.175293
1330.316406	6765.158203
1328.638672	6850.078125
1326.960938	6802.397461
1325.281250	6756.226074
1323.601563	6619.256836
1321.921875	6506.163086
1320.242188	6419.905273
1318.562500	6299.464844
1316.880859	6024.376953
1315.201172	6015.613281
1313.519531	5724.352539
1311.837891	5651.737793
1310.154297	5518.220215
1308.472656	5521.460938
1306.789063	5206.794922
1305.105469	5155.148926
1303.421875	4987.704590
1301.738281	4879.715820
1300.054688	4788.100586
1298.369141	4702.460938
1296.683594	4524.877441
1294.998047	4443.782715
1293.312500	4371.621094
1291.626953	4425.509766
1289.939453	4302.986328
1288.253906	4485.793457
1286.566406	4520.359375
1284.878906	4723.774414
1283.189453	4808.623535
1281.501953	4851.977539
1279.812500	4805.014160
1278.123047	4669.273438
1276.433594	4586.859375
1274.744141	4491.167480
1273.052734	4550.810059
1271.363281	4496.569824
1269.671875	4390.611816
1267.980469	4365.989746
1266.289063	4267.495605
1264.595703	4275.412598
1262.904297	4120.854492
1261.210938	4093.359375
1259.517578	4093.926758
1257.824219	4064.972900
1256.128906	4148.184570
1254.435547	4088.248047
1252.740234	4140.440918
1251.044922	4095.278809
1249.349609	4154.817871
1247.652344	4047.761475
1245.957031	4060.124512
1244.259766	3945.769043
1242.562500	3971.406250
1240.865234	4002.922363
1239.167969	3922.520508
1237.468750	3865.707275
1235.769531	3864.845947
1234.072266	3950.799316
1232.371094	3964.629883
1230.671875	3868.145264
1228.972656	3921.689209
1227.271484	3857.599365
1225.570313	3767.081299
1223.869141	3792.690918
1222.167969	3686.066406
1220.464844	3818.905029
1218.763672	3715.258545
1217.060547	3732.046387
1215.357422	3718.002197
1213.654297	3696.626221
1211.949219	3654.719238
1210.246094	3634.833252
1208.541016	3609.089600
1206.835938	3663.997314
1205.130859	3630.928711
1203.423828	3731.237549
1201.718750	3676.189941
1200.011719	3635.815186
1198.304688	3667.220947
1196.597656	3683.969971
1194.888672	3621.661133
1193.181641	3622.312988
1191.472656	3715.147949
1189.763672	3696.760010
1188.054688	3540.897949
1186.343750	3714.111084
1184.634766	3609.481445
1182.923828	3668.596680
1181.212891	3730.607422
1179.501953	3704.933838
1177.791016	3812.186768
1176.078125	3659.461182
1174.365234	3587.101318
1172.652344	3675.332031
1170.939453	3692.017334
1169.226563	3749.545898
1167.511719	3842.055420
1165.798828	3775.567139
1164.083984	3744.099854
1162.369141	3674.747559
1160.652344	3681.206787
1158.937500	3651.237793
1157.220703	3635.848877
1155.503906	3712.215820
1153.787109	3552.673828
1152.070313	3563.518555
1150.351563	3612.197266
1148.632813	3611.382813
1146.916016	3497.101563
1145.195313	3550.124268
1143.476563	3594.398682
1141.757813	3586.318604
1140.037109	3581.148926
1138.316406	3503.327881
1136.595703	3397.939941
1134.875000	3443.649170
1133.152344	3383.335938
1131.429688	3357.891357
1129.708984	3339.715332
1127.984375	3296.878418
1126.261719	3357.064697
1124.539063	3362.106934
1122.814453	3335.244141
1121.089844	3333.039307
1119.365234	3258.362793
1117.640625	3293.853027
1115.914063	3223.564941
1114.187500	3274.979248
1112.462891	3252.514893
1110.734375	3247.434326
1109.007813	3298.807373
1107.281250	3105.588135
1105.552734	3159.862793
1103.824219	3203.987305
1102.095703	3177.229248
1100.367188	3079.636719
1098.636719	3080.383057
1096.908203	3108.587158
1095.177734	3103.546387
1093.447266	3084.062500
1091.714844	3093.470947
1089.984375	3072.553711
1088.251953	3093.508301
1086.519531	3082.702148
1084.787109	3025.728516
1083.054688	3100.052979
1081.320313	3108.000977
1079.585938	3032.314697
1077.851563	3135.417480
1076.117188	3068.406250
1074.382813	3054.739014
1072.648438	3136.156494
1070.912109	3064.869141
1069.175781	3128.967285
1067.439453	3095.143066
1065.701172	3046.941162
1063.964844	3037.612549
1062.226563	2957.795654
1060.488281	2984.447998
1058.750000	3018.277832
1057.011719	3023.339355
1055.271484	3048.520508
1053.531250	3019.084473
1051.791016	3118.959961
1050.050781	3086.648438
1048.310547	3107.482666
1046.568359	3039.296143
1044.826172	3050.083740
1043.083984	3066.606201
1041.341797	3123.291748
1039.599609	3095.324219
1037.855469	3096.049805
1036.113281	2989.247803
1034.369141	3084.598633
1032.623047	3093.923584
1030.878906	3114.705322
1029.132813	3148.368652
1027.386719	3119.006104
1025.640625	3178.423340
1023.894531	3146.203857
1022.148438	3168.379395
1020.400391	3190.544434
1018.652344	3191.242676
1016.904297	3186.219971
1015.156250	3192.637451
1013.406250	3143.303955
1011.658203	3198.316650
1009.908203	3260.447754
1008.158203	3183.991455
1006.408203	3227.531006
1004.656250	3189.666748
1002.904297	3140.400146
1001.152344	3149.667725
999.400391	3150.370117
997.648438	3141.086426
995.896484	3106.136230
994.142578	3138.215088
992.388672	3060.516357
990.634766	3054.110840
988.878906	3099.001953
987.125000	3098.288086
985.369141	3137.450928
983.613281	3140.999512
981.857422	3107.534424
980.099609	3111.087646
978.343750	3108.947266
976.585938	3094.004639
974.828125	3137.379150
973.070313	3064.139648
971.310547	3107.500244
969.552734	3113.888916
967.792969	3233.945313
966.033203	3177.796631
964.273438	3346.070313
962.511719	3413.452393
960.750000	3531.907959
958.990234	3487.094727
957.226563	3555.815674
955.464844	3789.061035
953.703125	4183.880371
951.939453	4273.660156
950.175781	4505.159180
948.412109	4669.937988
946.648438	4596.592285
944.882813	4092.626465
943.117188	3570.481689
941.351563	3381.330811
939.585938	3230.489502
937.820313	3055.657471
936.052734	2987.030029
934.285156	2960.873779
932.517578	2970.087402
930.750000	2888.800537
928.982422	2893.784912
927.212891	2876.153320
925.443359	2883.963867
923.673828	2896.008545
921.904297	2906.635010
920.132813	2887.603516
918.361328	2932.107178
916.591797	2869.325439
914.818359	2847.493164
913.046875	2879.277832
911.275391	2853.221436
909.501953	2820.126465
907.728516	2834.977539
905.955078	2756.800781
904.179688	2788.568115
902.406250	2779.466797
900.630859	2871.775879
898.855469	2807.742920
897.080078	2835.244385
895.302734	2800.805664
893.525391	2821.259766
891.750000	2820.602539
889.970703	2821.351563
888.193359	2726.483398
886.416016	2828.471191
884.636719	2819.378906
882.857422	2825.747070
881.078125	2839.136230
879.296875	2723.305664
877.517578	2726.882568
875.736328	2783.803223
873.955078	2703.153564
872.173828	2810.567139
870.390625	2823.939209
868.609375	3112.199463
866.826172	3209.625977
865.042969	3154.203125
863.259766	2986.682617
861.474609	2878.091064
859.689453	2793.365234
857.904297	2696.073486
856.119141	2769.655029
854.333984	2769.007080
852.546875	2772.557861
850.761719	2804.091797
848.974609	2706.909912
847.185547	2665.717041
845.398438	2687.465088
843.609375	2618.336670
841.822266	2656.856445
840.031250	2589.164551
838.242188	2588.557861
836.453125	2604.710693
834.662109	2735.352295
832.871094	2659.328369
831.080078	2639.165771
829.289063	2617.616943
827.496094	2636.532959
825.703125	2606.626221
823.910156	2633.901367
822.117188	2714.135742
820.324219	2663.325928
818.529297	2708.681396
816.734375	2777.696533
814.939453	2682.340576
813.144531	2655.255371
811.347656	2650.455322
809.550781	2759.778320
807.755859	2635.295898
805.957031	2675.017090
804.160156	2652.136475
802.361328	2668.197754
800.564453	2613.356934
798.765625	2611.352295
796.964844	2584.338623
795.166016	2637.905518
793.365234	2591.455078
791.564453	2742.186035
789.763672	2758.197754
787.962891	2704.812012
786.160156	2729.149414
784.359375	2661.923828
782.556641	2691.806641
780.751953	2645.418213
778.949219	2684.993408
777.144531	2534.690430
775.339844	2543.791504
773.535156	2527.954590
771.730469	2654.765137
769.925781	2530.916016
768.119141	2562.155518
766.312500	2507.579834
764.505859	2545.727539
762.697266	2571.407959
760.890625	2563.886475
759.082031	2622.731445
757.273438	2506.003906
755.464844	2604.909912
753.654297	2622.255371
751.845703	2631.304688
750.035156	2743.919678
748.224609	2835.772217
746.412109	2938.623291
744.601563	3084.204102
742.789063	3369.058350
740.976563	3856.535645
739.164063	4706.453125
737.349609	5852.378906
735.537109	7354.748047
733.722656	8540.843750
731.908203	9056.828125
730.091797	8589.141602
728.277344	7407.000488
726.460938	5886.751465
724.644531	4659.012207
722.828125	3824.026367
721.009766	3356.752197
719.193359	3029.989014
717.375000	2960.518066
715.556641	2805.845459
713.736328	2750.204102
711.917969	2701.459229
710.097656	2590.917725
708.277344	2588.930176
706.457031	2538.884277
704.636719	2538.282227
702.814453	2456.705078
700.992188	2511.007568
699.169922	2499.437500
697.347656	2539.989014
695.523438	2509.220703
693.699219	2520.962891
691.875000	2613.559082
690.050781	2618.419434
688.226563	2658.893311
686.400391	2658.261963
684.574219	2657.630859
682.748047	2613.195313
680.921875	2585.203613
679.095703	2603.744629
677.267578	2601.758057
675.439453	2564.215088
673.611328	2555.402100
671.781250	2621.774414
669.953125	2544.621338
668.123047	2646.487305
666.292969	2591.219971
664.460938	2542.806641
662.630859	2544.932373
660.798828	2641.240967
658.966797	2611.954834
657.134766	2579.953613
655.302734	2627.080078
653.468750	2623.727539
651.634766	2544.028320
649.800781	2730.158447
647.966797	2660.010498
646.130859	2660.739502
644.294922	2699.605713
642.458984	2651.302246
640.623047	2668.369141
638.787109	2688.149902
636.949219	2620.832031
635.111328	2609.324219
633.273438	2610.062744
631.435547	2693.747803
629.595703	2671.354492
627.757813	2663.922119
625.917969	2668.722412
624.076172	2587.934814
622.236328	2590.034424
620.394531	2564.975586
618.552734	2620.022461
616.710938	2466.033936
614.869141	2503.438232
613.025391	2397.030029
611.183594	2460.201172
609.339844	2410.801514
607.494141	2389.892578
605.650391	2341.888184
603.804688	2308.811035
601.958984	2297.423096
600.113281	2363.234863
598.267578	2343.715332
596.419922	2374.289551
594.572266	2283.050293
592.724609	2256.798340
590.876953	2279.254883
589.027344	2327.395264
587.179688	2307.911133
585.330078	2289.787598
583.480469	2332.484863
581.628906	2281.938477
579.779297	2313.811035
577.927734	2243.036865
576.076172	2388.310547
574.222656	2358.045166
572.371094	2339.938721
570.517578	2323.189941
568.664063	2406.260498
566.810547	2413.776123
564.955078	2340.398682
563.101563	2395.100342
561.246094	2381.052734
559.390625	2345.456543
557.533203	2386.648438
555.677734	2367.226318
553.820313	2310.118652
551.962891	2329.754639
550.105469	2292.866943
548.246094	2247.925049
546.386719	2268.906250
544.527344	2260.295898
542.667969	2200.606201
540.808594	2249.806641
538.947266	2274.797607
537.085938	2282.313232
535.224609	2232.075928
533.363281	2235.569824
531.500000	2245.773682
529.638672	2196.922607
527.775391	2280.925293
525.910156	2366.229004
524.046875	2597.669189
522.181641	3026.089600
520.316406	3699.604736
518.451172	3423.995361
516.585938	2727.822266
514.718750	2441.861084
512.851563	2284.595459
510.984375	2160.875732
509.117188	2189.805664
507.250000	2170.546631
505.380859	2183.405518
503.511719	2153.456543
501.642578	2128.870605
499.771484	2084.242676
497.902344	2150.572998
496.031250	2123.332275
494.160156	2121.487793
492.287109	2074.232666
490.416016	2119.136230
488.542969	2122.633545
486.669922	2123.459717
484.796875	2108.273193
482.921875	2147.788818
481.046875	2103.261963
479.171875	2129.425781
477.296875	2126.249512
475.421875	2155.060547
473.544922	2103.911621
471.667969	2054.119385
469.791016	2114.889648
467.914063	2085.090332
466.035156	2065.954590
464.156250	2078.767822
462.277344	2090.244385
460.398438	2041.856201
458.519531	2061.315186
456.638672	2095.389648
454.757813	2100.204590
452.876953	2082.425049
450.994141	2105.840820
449.113281	2106.664551
447.230469	2127.407227
445.347656	2071.135986
443.462891	2005.600220
441.580078	2051.564941
439.695313	2041.786377
437.810547	2035.991577
435.925781	2016.938721
434.039063	2076.113770
432.152344	2075.616211
430.267578	2079.093994
428.378906	2069.322021
426.492188	2030.416504
424.603516	2052.440430
422.714844	2046.653198
420.826172	2019.692261
418.937500	1996.713745
417.046875	2045.182007
415.158203	2039.401489
413.265625	2025.690308
411.375000	2021.239014
409.484375	2014.146484
407.591797	2073.122314
405.699219	1982.798584
403.806641	2052.318848
401.912109	1954.120972
400.019531	2024.934570
