#Wave		#Intensity
2109.224609	4667.496094
2107.712891	4659.226563
2106.201172	4621.839355
2104.687500	4584.468262
2103.175781	4633.064453
2101.662109	4549.436523
2100.150391	4593.062500
2098.636719	4601.981445
2097.123047	4554.746582
2095.607422	4576.878906
2094.093750	4562.685059
2092.578125	4607.911621
2091.064453	4595.367188
2089.548828	4622.420898
2088.033203	4634.619141
2086.517578	4635.269043
2085.000000	4550.190430
2083.484375	4641.513184
2081.966797	4625.682129
2080.449219	4529.127930
2078.931641	4577.568848
2077.414063	4584.817871
2075.894531	4593.709961
2074.376953	4586.137207
2072.857422	4627.941406
2071.337891	4589.101074
2069.818359	4561.793457
2068.298828	4592.062500
2066.777344	4569.699219
2065.257813	4525.973145
2063.736328	4436.243164
2062.214844	4565.111816
2060.693359	4554.273926
2059.171875	4656.780273
2057.648438	4511.263184
2056.126953	4625.228027
2054.603516	4589.763184
2053.080078	4477.177734
2051.556641	4543.492188
2050.033203	4547.439941
2048.507813	4533.344238
2046.984375	4481.539063
2045.458984	4546.156738
2043.933594	4415.694824
2042.408203	4432.775391
2040.882813	4472.786133
2039.355469	4506.227051
2037.830078	4544.566895
2036.302734	4476.463867
2034.775391	4455.862305
2033.248047	4535.104492
2031.718750	4527.589355
2030.191406	4559.339844
2028.662109	4527.289063
2027.134766	4423.301758
2025.605469	4509.005371
2024.076172	4504.772949
2022.544922	4469.492676
2021.015625	4448.932129
2019.484375	4496.986328
2017.955078	4500.925781
2016.423828	4491.801270
2014.892578	4453.296387
2013.359375	4460.506348
2011.828125	4446.500977
2010.294922	4558.118652
2008.761719	4470.700684
2007.230469	4549.651855
2005.695313	4483.467773
2004.162109	4492.291992
2002.628906	4406.592285
2001.093750	4452.902832
1999.558594	4438.922363
1998.023438	4532.436523
1996.488281	4502.162109
1994.953125	4488.180176
1993.417969	4474.203613
1991.880859	4513.931641
1990.343750	4553.643066
1988.806641	4394.899414
1987.269531	4369.571289
1985.732422	4389.777832
1984.193359	4364.461426
1982.656250	4368.408203
1981.117188	4346.356445
1979.578125	4353.554688
1978.039063	4409.473145
1976.500000	4421.525391
1974.958984	4410.845215
1973.417969	4513.784668
1971.878906	4421.952148
1970.337891	4304.200684
1968.796875	4447.647949
1967.253906	4407.782715
1965.712891	4424.681152
1964.169922	4441.572754
1962.626953	4398.492188
1961.083984	4360.290527
1959.541016	4336.685059
1957.998047	4418.366211
1956.455078	4352.656738
1954.910156	4329.067383
1953.365234	4345.953613
1951.820313	4327.230469
1950.275391	4560.910645
1948.730469	4437.007324
1947.183594	4411.807617
1945.638672	4427.041016
1944.091797	4333.958984
1942.544922	4300.716309
1940.998047	4353.127441
1939.449219	4332.818848
1937.902344	4419.119629
1936.353516	4345.515625
1934.804688	4389.800293
1933.255859	4343.673828
1931.707031	4426.671387
1930.158203	4422.506836
1928.607422	4298.972168
1927.058594	4373.862305
1925.507813	4301.988770
1923.957031	4270.447754
1922.406250	4379.142578
1920.853516	4357.267090
1919.302734	4449.786621
1917.750000	4355.422363
1916.197266	4349.668945
1914.644531	4337.478027
1913.091797	4381.631836
1911.539063	4332.423340
1909.984375	4300.934570
1908.431641	4361.154785
1906.876953	4258.905762
1905.322266	4362.525391
1903.767578	4302.118652
1902.210938	4330.140137
1900.656250	4255.302734
1899.099609	4347.588379
1897.542969	4375.582520
1895.986328	4331.295898
1894.429688	4285.422363
1892.873047	4351.937988
1891.314453	4379.906738
1889.755859	4322.819336
1888.199219	4219.231934
1886.640625	4298.536621
1885.080078	4320.078125
1883.521484	4450.631836
1881.960938	4387.177246
1880.402344	4290.095215
1878.841797	4282.779297
1877.281250	4299.495117
1875.720703	4346.633301
1874.158203	4353.720703
1872.597656	4338.392578
1871.035156	4387.092773
1869.472656	4290.153320
1867.910156	4286.047363
1866.347656	4318.731934
1864.783203	4249.054199
1863.220703	4233.766602
1861.656250	4322.389160
1860.091797	4315.083008
1858.527344	4202.322754
1856.962891	4282.907715
1855.396484	4224.504883
1853.832031	4293.873047
1852.265625	4269.018555
1850.699219	4247.367188
1849.132813	4244.874023
1847.566406	4210.472656
1845.998047	4313.267578
1844.431641	4200.720215
1842.863281	4368.846680
1841.294922	4291.405762
1839.726563	4287.311523
1838.156250	4340.583984
1836.587891	4196.286133
1835.017578	4290.967285
1833.449219	4243.879883
1831.878906	4328.958008
1830.306641	4195.926270
1828.736328	4242.783203
1827.166016	4254.616211
1825.593750	4355.527344
1824.021484	4246.458008
1822.449219	4161.286133
1820.876953	4398.871582
1819.304688	4331.187012
1817.730469	4336.628418
1816.158203	4261.041504
1814.583984	4306.206055
1813.009766	4300.532227
1811.435547	4323.440430
1809.859375	4270.142578
1808.285156	4297.808594
1806.708984	4201.696289
1805.132813	4337.240234
1803.556641	4303.016602
1801.980469	4298.936523
1800.404297	4239.368652
1798.826172	4289.195801
1797.248047	4202.714355
1795.671875	4279.462402
1794.093750	4284.895020
1792.513672	4165.209961
1790.935547	4270.417969
1789.355469	4201.444336
1787.777344	4176.815918
1786.197266	4370.568359
1784.617188	4228.841797
1783.035156	4234.275391
1781.455078	4252.357910
1779.873047	4229.324707
1778.292969	4223.689453
1776.710938	4319.200684
1775.128906	4212.424805
1773.544922	4206.795410
1771.962891	4338.575195
1770.378906	4216.071777
1768.794922	4196.236328
1767.212891	4239.544434
1765.626953	4186.572754
1764.042969	4245.641602
1762.458984	4317.304199
1760.873047	4179.188477
1759.287109	4247.680664
1757.701172	4205.796875
1756.115234	4234.853027
1754.529297	4204.019531
1752.941406	4207.856934
1751.355469	4280.995117
1749.767578	4187.181641
1748.179688	4208.337891
1746.591797	4179.115234
1745.001953	4234.885742
1743.414063	4211.962891
1741.824219	4261.410156
1740.234375	4112.672852
1738.644531	4217.153809
1737.054688	4274.428223
1735.462891	4194.937500
1733.873047	4266.334473
1732.281250	4315.706055
1730.689453	4288.090820
1729.097656	4302.887695
1727.505859	4250.165527
1725.912109	4249.266113
1724.320313	4286.032715
1722.726563	4294.540039
1721.132813	4306.181152
1719.539063	4339.774902
1717.945313	4238.500000
1716.349609	4344.208984
1714.755859	4236.706055
1713.160156	4278.120117
1711.564453	4281.914551
1709.968750	4299.805176
1708.371094	4244.082031
1706.775391	4351.220215
1705.177734	4270.462402
1703.580078	4314.945313
1701.982422	4370.362793
1700.384766	4344.406250
1698.787109	4305.947754
1697.187500	4341.001953
1695.587891	4338.519043
1693.990234	4337.599609
1692.390625	4366.373047
1690.789063	4234.203125
1689.189453	4400.451172
1687.587891	4341.732422
1685.988281	4392.339844
1684.386719	4400.775391
1682.785156	4245.325195
1681.181641	4392.667480
1679.580078	4383.935547
1677.976563	4379.886230
1676.373047	4316.579102
1674.769531	4437.275391
1673.166016	4403.599609
1671.562500	4397.989746
1669.957031	4331.614746
1668.353516	4439.742188
1666.748047	4469.949219
1665.142578	4453.429199
1663.537109	4592.597168
1661.929688	4498.233398
1660.324219	4523.732910
1658.716797	4589.672363
1657.109375	4650.917480
1655.501953	4667.036621
1653.894531	4585.194336
1652.285156	4727.234375
1650.677734	4752.650879
1649.068359	4798.256348
1647.458984	4733.542969
1645.849609	4765.153809
1644.240234	4868.181641
1642.628906	4834.543945
1641.019531	4817.994141
1639.408203	4823.177246
1637.796875	4826.806641
1636.185547	4870.764648
1634.572266	4937.966797
1632.960938	4971.028320
1631.347656	5064.533691
1629.734375	4996.811523
1628.121094	5160.000488
1626.507813	5213.125000
1624.894531	5298.753418
1623.279297	5328.596680
1621.664063	5282.563477
1620.048828	5414.558105
1618.433594	5339.121582
1616.818359	5478.783691
1615.203125	5562.696777
1613.585938	5770.300293
1611.968750	5690.211914
1610.351563	5787.938477
1608.734375	5896.442383
1607.117188	5896.730957
1605.498047	5827.496582
1603.878906	5871.047852
1602.261719	6005.692383
1600.640625	5887.071289
1599.021484	5919.775391
1597.402344	5896.906738
1595.781250	5946.565918
1594.162109	5959.181152
1592.541016	5859.202148
1590.919922	5978.225098
1589.296875	5924.533203
1587.675781	5923.268066
1586.052734	5868.068848
1584.429688	5809.811523
1582.806641	5882.506348
1581.183594	6021.389648
1579.560547	5912.326172
1577.935547	5941.849609
1576.312500	5954.430664
1574.687500	5834.679688
1573.062500	5911.888184
1571.435547	5878.325684
1569.810547	5947.802734
1568.183594	5984.964844
1566.558594	5937.573242
1564.931641	5940.913086
1563.304688	5870.504883
1561.675781	5827.775391
1560.048828	5861.849609
1558.419922	5862.129883
1556.791016	5813.287598
1555.162109	5899.522949
1553.533203	5829.210938
1551.904297	5754.326660
1550.273438	5702.479980
1548.642578	5791.729980
1547.011719	5917.735352
1545.380859	5746.330078
1543.750000	5634.762695
1542.119141	5632.022461
1540.486328	5643.068848
1538.853516	5549.971680
1537.220703	5640.648438
1535.587891	5591.983398
1533.955078	5471.407227
1532.320313	5641.607910
1530.685547	5655.695313
1529.052734	5599.419434
1527.416016	5549.284668
1525.781250	5612.303223
1524.146484	5537.729980
1522.509766	5507.504883
1520.873047	5376.455566
1519.236328	5480.697754
1517.599609	5464.248047
1515.962891	5542.469238
1514.324219	5385.572266
1512.687500	5387.466309
1511.048828	5372.574707
1509.410156	5437.017090
1507.771484	5373.313477
1506.130859	5343.184082
1504.492188	5404.540527
1502.851563	5316.496094
1501.210938	5310.779785
1499.570313	5393.432129
1497.927734	5220.144043
1496.287109	5241.862793
1494.644531	5233.120605
1493.001953	5172.624512
1491.359375	5109.110352
1489.716797	5182.567383
1488.074219	5126.684082
1486.429688	5060.177734
1484.785156	5164.008301
1483.140625	5082.318848
1481.496094	5100.981445
1479.851563	5133.312500
1478.207031	5118.530273
1476.560547	5071.855957
1474.914063	5128.468750
1473.267578	5153.172363
1471.621094	5182.418945
1469.972656	5059.886230
1468.326172	5048.170898
1466.677734	5130.515137
1465.029297	5052.055176
1463.380859	5102.518555
1461.732422	5112.026855
1460.082031	5162.454590
1458.431641	5105.269043
1456.783203	5189.005859
1455.132813	5087.912109
1453.480469	5092.867676
1451.830078	5161.411621
1450.177734	5033.140625
1448.527344	5038.103516
1446.875000	5040.038086
1445.220703	5043.483887
1443.568359	5060.539551
1441.916016	5169.824707
1440.261719	5073.462891
1438.607422	4980.165039
1436.953125	5134.728516
1435.298828	5098.866211
1433.642578	5105.312012
1431.988281	5030.208008
1430.332031	5041.193848
1428.675781	5053.684570
1427.019531	5014.858398
1425.361328	4971.521973
1423.705078	4910.102539
1422.046875	4921.100586
1420.388672	5031.609863
1418.730469	4801.376465
1417.072266	5020.378906
1415.412109	4906.273926
1413.753906	4944.375488
1412.093750	4940.287109
1410.433594	5005.469727
1408.773438	4882.432129
1407.111328	5004.795410
1405.451172	4935.986328
1403.789063	5022.174805
1402.126953	4969.937012
1400.464844	4986.900391
1398.802734	5005.359863
1397.138672	5022.307129
1395.474609	5019.708984
1393.812500	5146.333496
1392.146484	5098.641113
1390.482422	4974.370605
1388.818359	4998.812012
1387.152344	5039.756348
1385.486328	5133.215332
1383.820313	5141.097656
1382.154297	5189.484375
1380.488281	5119.352539
1378.820313	5143.727051
1377.154297	5190.580566
1375.486328	5101.006348
1373.818359	5255.750000
1372.148438	5187.176270
1370.480469	5201.020996
1368.810547	5125.000000
1367.140625	5173.290527
1365.470703	5221.559082
1363.800781	5193.475586
1362.130859	5180.367188
1360.458984	5236.081543
1358.787109	5219.977051
1357.115234	5272.666504
1355.443359	5213.204102
1353.771484	5238.965820
1352.097656	5212.412598
1350.423828	5320.335449
1348.751953	5266.887695
1347.076172	5370.269531
1345.402344	5415.376465
1343.728516	5452.998535
1342.052734	5511.498047
1340.376953	5635.623047
1338.701172	5506.093262
1337.025391	5574.980957
1335.347656	5532.004395
1333.671875	5650.050781
1331.994141	5633.903809
1330.316406	5684.818848
1328.638672	5582.262207
1326.960938	5683.807617
1325.281250	5666.175781
1323.601563	5615.797852
1321.921875	5578.837891
1320.242188	5457.068359
1318.562500	5466.281250
1316.880859	5569.201660
1315.201172	5553.102539
1313.519531	5468.615234
1311.837891	5379.705078
1310.154297	5327.988281
1308.472656	5329.784668
1306.789063	5379.116699
1305.105469	5407.633789
1303.421875	5271.316406
1301.738281	5329.534668
1300.054688	5222.977539
1298.369141	5349.438965
1296.683594	5241.440430
1294.998047	5244.731445
1293.312500	5265.815918
1291.626953	5137.149902
1289.939453	5150.836426
1288.253906	4988.166992
1286.566406	5018.176758
1284.878906	5049.654297
1283.189453	4987.817871
1281.501953	4994.116699
1279.812500	5075.906738
1278.123047	5006.704590
1276.433594	4949.369141
1274.744141	4932.000000
1273.052734	4961.965332
1271.363281	4892.847168
1269.671875	4894.718750
1267.980469	4833.035645
1266.289063	4885.159180
1264.595703	4759.979004
1262.904297	4791.416504
1261.210938	4788.875977
1259.517578	4846.866699
1257.824219	4711.471680
1256.128906	4784.209961
1254.435547	4730.033691
1252.740234	4762.908203
1251.044922	4842.958496
1249.349609	4701.814941
1247.652344	4712.561523
1245.957031	4705.618164
1244.259766	4710.464355
1242.562500	4732.985352
1240.865234	4779.059082
1239.167969	4654.312012
1237.468750	4531.091797
1235.769531	4656.653809
1234.072266	4658.559082
1232.371094	4629.569336
1230.671875	4590.297363
1228.972656	4649.562012
1227.271484	4648.524902
1225.570313	4676.883301
1223.869141	4630.286133
1222.167969	4557.265137
1220.464844	4545.965820
1218.763672	4583.131348
1217.060547	4507.231445
1215.357422	4617.779297
1213.654297	4521.359863
1211.949219	4470.465332
1210.246094	4382.922363
1208.541016	4458.200684
1206.835938	4441.075684
1205.130859	4462.069824
1203.423828	4408.312012
1201.718750	4452.746582
1200.011719	4410.732910
1198.304688	4299.904297
1196.597656	4342.867676
1194.888672	4398.986328
1193.181641	4285.306152
1191.472656	4322.389648
1189.763672	4385.788086
1188.054688	4412.593750
1186.343750	4382.358887
1184.634766	4390.146973
1182.923828	4428.624512
1181.212891	4411.556641
1179.501953	4385.729980
1177.791016	4440.248047
1176.078125	4412.965332
1174.365234	4400.294434
1172.652344	4349.678223
1170.939453	4278.654297
1169.226563	4322.919922
1167.511719	4332.158203
1165.798828	4320.975586
1164.083984	4328.750977
1162.369141	4327.776855
1160.652344	4201.472168
1158.937500	4314.172363
1157.220703	4324.854004
1155.503906	4229.217285
1153.787109	4137.991211
1152.070313	4230.222656
1150.351563	4181.242188
1148.632813	4216.674805
1146.916016	4060.070801
1145.195313	4130.418945
1143.476563	4226.908203
1141.757813	4144.545898
1140.037109	4097.101563
1138.316406	3990.103027
1136.595703	4103.967773
1134.875000	4103.040527
1133.152344	4077.427979
1131.429688	4089.572021
1129.708984	4103.161621
1127.984375	4108.038086
1126.261719	4152.082520
1124.539063	4062.666748
1122.814453	4156.004395
1121.089844	4066.626953
1119.365234	4119.335938
1117.640625	4144.487305
1115.914063	3984.181152
1114.187500	4022.387207
1112.462891	4002.649902
1110.734375	4004.638184
1109.007813	3927.013672
1107.281250	3957.960449
1105.552734	4043.872070
1103.824219	3948.932373
1102.095703	4013.113770
1100.367188	3958.706787
1098.636719	4004.064453
1096.908203	4021.942383
1095.177734	4021.028809
1093.447266	4031.671387
1091.714844	3939.770752
1089.984375	3972.084229
1088.251953	3953.858643
1086.519531	3952.959473
1084.787109	3838.072510
1083.054688	3912.212158
1081.320313	3957.473145
1079.585938	3836.894531
1077.851563	3947.021973
1076.117188	4010.979004
1074.382813	3899.114990
1072.648438	3888.142578
1070.912109	3897.338379
1069.175781	3998.684814
1067.439453	3931.551514
1065.701172	3893.233887
1063.964844	3839.104980
1062.226563	3997.915283
1060.488281	3915.020508
1058.750000	4033.477539
1057.011719	3931.922607
1055.271484	3919.526123
1053.531250	3895.639404
1051.791016	3966.581543
1050.050781	3916.840332
1048.310547	3826.913818
1046.568359	3948.070068
1044.826172	3917.025146
1043.083984	3865.904053
1041.341797	3892.278564
1039.599609	3806.761230
1037.855469	3933.517822
1036.113281	3892.473877
1034.369141	3900.182617
1032.623047	3833.369873
1030.878906	3865.443848
1029.132813	3858.828613
1027.386719	3908.065918
1025.640625	3874.240479
1023.894531	3827.547363
1022.148438	3855.290771
1020.400391	3812.915039
1018.652344	3833.496338
1016.904297	3944.162842
1015.156250	3873.199463
1013.406250	3783.686035
1011.658203	3812.827881
1009.908203	3757.658936
1008.158203	3749.653320
1006.408203	3774.497559
1004.656250	3727.940918
1002.904297	3819.868408
1001.152344	3894.627686
999.400391	3781.014893
997.648438	3852.894775
995.896484	3854.860596
994.142578	3816.902100
992.388672	3912.956299
990.634766	3823.695557
988.878906	3782.919678
987.125000	3873.216309
985.369141	3822.477783
983.613281	3902.755859
981.857422	3926.055908
980.099609	3989.194092
978.343750	3918.553955
976.585938	3934.720459
974.828125	3874.080078
973.070313	3864.654785
971.310547	3738.666748
969.552734	3948.143799
967.792969	3788.092529
966.033203	3764.488525
964.273438	3847.412598
962.511719	3839.424072
960.750000	3770.396973
958.990234	3880.226807
957.226563	3812.640381
955.464844	3772.038086
953.703125	3827.895996
951.939453	3706.485840
950.175781	3738.232910
948.412109	3731.698730
946.648438	3811.600830
944.882813	3745.553711
943.117188	3778.677246
941.351563	3806.121094
939.585938	3751.444824
937.820313	3719.438721
936.052734	3732.726318
934.285156	3755.909912
932.517578	3803.125977
930.750000	3788.104004
928.982422	3785.811523
927.212891	3772.212891
925.443359	3806.662842
923.673828	3815.667725
921.904297	3810.544678
920.132813	3780.007080
918.361328	3821.480225
916.591797	3766.960205
914.818359	3739.274902
913.046875	3687.619873
911.275391	3781.258789
909.501953	3756.408447
907.728516	3713.242676
905.955078	3757.479980
904.179688	3704.469727
902.406250	3696.563965
900.630859	3743.590088
898.855469	3701.883789
897.080078	3677.089600
895.302734	3798.680664
893.525391	3835.787598
891.750000	3763.147949
889.970703	3832.593750
888.193359	3775.455322
886.416016	3837.836182
884.636719	3780.722412
882.857422	3802.322998
881.078125	3687.645996
879.296875	3772.459473
877.517578	3676.095947
875.736328	3728.583740
873.955078	3656.134521
872.173828	3715.617432
870.390625	3682.484131
868.609375	3701.259277
866.826172	3613.458496
865.042969	3640.651367
863.259766	3648.209717
861.474609	3675.381348
859.689453	3534.433350
857.904297	3599.433105
856.119141	3629.396240
854.333984	3666.344727
852.546875	3640.294434
850.761719	3666.028076
848.974609	3646.984131
847.185547	3707.668457
845.398438	3664.852295
843.609375	3670.983643
841.822266	3682.702148
840.031250	3635.729004
838.242188	3577.602051
836.453125	3613.075928
834.662109	3666.684570
832.871094	3667.220947
831.080078	3588.204834
829.289063	3587.363281
827.496094	3617.211426
825.703125	3510.368408
823.910156	3614.119873
822.117188	3574.239258
820.324219	3597.092773
818.529297	3515.433594
816.734375	3561.970947
814.939453	3569.490723
813.144531	3624.346924
811.347656	3595.654541
809.550781	3509.914795
807.755859	3548.048584
805.957031	3552.778809
804.160156	3558.897217
802.361328	3495.491943
800.564453	3671.210205
798.765625	3557.776367
796.964844	3516.645752
795.166016	3500.538086
793.365234	3592.762207
791.564453	3573.866699
789.763672	3510.559814
787.962891	3561.081543
786.160156	3560.242920
784.359375	3537.209961
782.556641	3507.253418
780.751953	3535.543213
778.949219	3515.303711
777.144531	3551.892578
775.339844	3624.487305
773.535156	3516.973633
771.730469	3560.459473
769.925781	3513.930420
768.119141	3513.101318
766.312500	3459.685303
764.505859	3523.895752
762.697266	3589.458496
760.890625	3531.912598
759.082031	3652.744629
757.273438	3490.159912
755.464844	3526.647461
753.654297	3523.051270
751.845703	3534.650391
750.035156	3550.386475
748.224609	3559.211670
746.412109	3681.215576
744.601563	3663.785889
742.789063	3628.428955
740.976563	3609.640137
739.164063	3681.872314
737.349609	3831.274658
735.537109	3885.501221
733.722656	4087.147949
731.908203	4334.162109
730.091797	4378.588867
728.277344	4252.243652
726.460938	3940.103516
724.644531	3864.846680
722.828125	3647.892578
721.009766	3653.907227
719.193359	3607.653809
717.375000	3521.545166
715.556641	3482.218018
713.736328	3533.620605
711.917969	3535.531250
710.097656	3408.306885
708.277344	3470.677002
706.457031	3471.227295
704.636719	3504.723877
702.814453	3486.050537
700.992188	3416.616943
699.169922	3370.536865
697.347656	3421.853516
695.523438	3508.795654
693.699219	3492.883789
691.875000	3519.464844
690.050781	3407.644531
688.226563	3486.287354
686.400391	3419.721924
684.574219	3528.446533
682.748047	3579.625977
680.921875	3439.182861
679.095703	3528.669189
677.267578	3545.613525
675.439453	3439.467285
673.611328	3474.198486
671.781250	3491.142822
669.953125	3486.213135
668.123047	3545.500732
666.292969	3496.849121
664.460938	3681.743652
662.630859	3652.196533
660.798828	3528.479492
658.966797	3568.579834
657.134766	3697.342285
655.302734	3603.709961
653.468750	3616.489258
651.634766	3636.079102
649.800781	3625.672363
647.966797	3634.348145
646.130859	3660.730713
644.294922	3591.756104
642.458984	3619.497314
640.623047	3546.480225
638.787109	3575.579590
636.949219	3630.519287
635.111328	3560.271973
633.273438	3567.584229
631.435547	3496.025146
629.595703	3567.243652
627.757813	3525.619141
625.917969	3469.067383
624.076172	3541.599121
622.236328	3566.560059
620.394531	3557.562744
618.552734	3418.246826
616.710938	3420.145996
614.869141	3474.962402
613.025391	3453.785156
611.183594	3416.343262
609.339844	3461.628906
607.494141	3445.891602
605.650391	3443.714111
603.804688	3343.982178
601.958984	3398.723145
600.113281	3385.723389
598.267578	3382.207275
596.419922	3329.961426
594.572266	3423.898926
592.724609	3275.604736
590.876953	3315.402832
589.027344	3371.409912
587.179688	3357.084473
585.330078	3344.117188
583.480469	3493.321777
581.628906	3395.211182
579.779297	3383.594238
577.927734	3362.529541
576.076172	3402.228760
574.222656	3385.218750
572.371094	3362.818604
570.517578	3328.286865
568.664063	3327.491211
566.810547	3369.847168
564.955078	3239.618652
563.101563	3330.497070
561.246094	3327.005615
559.390625	3299.266357
557.533203	3332.149170
555.677734	3281.530273
553.820313	3311.708740
551.962891	3279.960938
550.105469	3315.507080
548.246094	3309.333008
546.386719	3307.196533
544.527344	3340.020752
542.667969	3354.008789
540.808594	3229.561035
538.947266	3340.311279
537.085938	3293.838867
535.224609	3330.654785
533.363281	3368.795654
531.500000	3341.142090
529.638672	3381.945801
527.775391	3312.708496
525.910156	3328.012451
524.046875	3450.594971
522.181641	3632.112061
520.316406	3804.158936
518.451172	3692.018555
516.585938	3541.077637
514.718750	3339.308594
512.851563	3339.848145
510.984375	3250.685547
509.117188	3208.413330
507.250000	3207.645020
505.380859	3204.200928
503.511719	3239.547607
501.642578	3195.980225
499.771484	3191.204102
497.902344	3214.498291
496.031250	3255.152832
494.160156	3228.989990
492.287109	3201.503906
490.416016	3170.024902
488.542969	3221.330078
486.669922	3191.195557
484.796875	3251.811035
482.921875	3267.040283
481.046875	3119.549561
479.171875	3241.474121
477.296875	3223.367432
475.421875	3207.934814
473.544922	3199.171631
471.667969	3201.069092
469.791016	3222.942627
467.914063	3206.192627
466.035156	3206.755371
464.156250	3111.497559
462.277344	3206.549072
460.398438	3127.299072
458.519531	3182.404541
456.638672	3216.210449
454.757813	3164.928467
452.876953	3239.918701
450.994141	3220.541504
449.113281	3150.698730
447.230469	3177.831055
445.347656	3166.448242
443.462891	3139.142578
441.580078	3115.831055
439.695313	3127.024414
437.810547	3195.246582
435.925781	3187.850586
434.039063	3152.617188
432.152344	3110.773438
430.267578	3075.574951
428.378906	3016.547119
426.492188	3070.127441
424.603516	3139.571777
422.714844	3066.008301
420.826172	3071.891113
418.937500	3081.740479
417.046875	3133.917236
415.158203	3072.328125
413.265625	3066.302734
411.375000	3109.191650
409.484375	3092.587158
407.591797	3103.737793
405.699219	3117.524658
403.806641	3000.558838
401.912109	3084.342285
400.019531	2995.160645
