#Wave		#Intensity
1585.210938	8784.220703
1584.209961	8834.173828
1583.208984	8942.216797
1582.208008	8815.533203
1581.206055	8786.250000
1580.204102	8821.863281
1579.202148	8620.431641
1578.200195	8920.485352
1577.198242	8786.454102
1576.195313	8739.750977
1575.192383	8894.999023
1574.189453	8843.306641
1573.186523	8916.234375
1572.182617	8747.460938
1571.178711	8715.757813
1570.174805	8776.212891
1569.170898	8622.511719
1568.166992	8780.045898
1567.162109	8810.583008
1566.158203	8821.200195
1565.153320	8816.885742
1564.147461	8894.654297
1563.142578	8900.272461
1562.136719	8920.806641
1561.130859	8757.383789
1560.125000	9083.625000
1559.119141	9181.133789
1558.113281	9196.622070
1557.106445	9261.778320
1556.099609	9307.041016
1555.092773	9364.698242
1554.084961	9623.387695
1553.078125	9375.710938
1552.070313	9582.186523
1551.062500	9582.682617
1550.054688	9704.705078
1549.045898	9501.847656
1548.038086	9608.959961
1547.029297	9408.684570
1546.020508	9270.442383
1545.011719	9243.748047
1544.001953	9244.311523
1542.992188	9108.665039
1541.982422	9027.546875
1540.972656	8941.510742
1539.962891	8778.785156
1538.952148	8695.309570
1537.942383	8725.670898
1536.931641	8756.019531
1535.919922	8563.790039
1534.909180	8571.906250
1533.897461	8491.030273
1532.886719	8442.315430
1531.874023	8405.975586
1530.862305	8473.405273
1529.850586	8306.169922
1528.837891	8536.569336
1527.825195	8631.086914
1526.812500	8567.591797
1525.799805	8513.993164
1524.786133	8349.387695
1523.772461	8530.202148
1522.758789	8496.374023
1521.745117	8575.985352
1520.731445	8510.113281
1519.716797	8525.603516
1518.702148	8531.231445
1517.687500	8628.014648
1516.672852	8557.256836
1515.657227	8673.695313
1514.642578	8657.125977
1513.626953	8724.260742
1512.610352	8404.959961
1511.594727	8688.658203
1510.579102	8610.593750
1509.562500	8559.617188
1508.545898	8543.088867
1507.529297	8585.575195
1506.511719	8699.329102
1505.494141	8569.730469
1504.477539	8663.783203
1503.458984	8531.788086
1502.441406	8635.632813
1501.423828	8854.846680
1500.405273	8826.006836
1499.386719	8779.996094
1498.368164	8694.738281
1497.348633	8602.156250
1496.330078	8803.976563
1495.310547	8895.348633
1494.291016	8739.027344
1493.271484	8827.922852
1492.250977	8789.328125
1491.231445	8831.616211
1490.210938	8606.835938
1489.190430	8671.188477
1488.168945	8659.595703
1487.148438	8777.775391
1486.126953	8744.132813
1485.105469	8896.509766
1484.083984	8730.719727
1483.061523	8868.357422
1482.040039	8993.708008
1481.017578	8984.506836
1479.995117	9102.445313
1478.971680	8907.449219
1477.949219	9081.563477
1476.925781	9258.048828
1475.902344	9370.945313
1474.878906	9576.605469
1473.855469	9403.687500
1472.831055	9694.702148
1471.806641	9682.927734
1470.782227	9910.313477
1469.757813	9847.261719
1468.733398	10130.623047
1467.708008	10223.635742
1466.682617	10699.429688
1465.657227	11075.073242
1464.631836	11270.199219
1463.605469	11474.990234
1462.579102	12018.343750
1461.552734	11974.441406
1460.526367	12261.757813
1459.500000	12366.343750
1458.472656	12539.045898
1457.445313	12370.946289
1456.417969	12090.983398
1455.390625	12005.758789
1454.362305	11519.244141
1453.334961	11293.129883
1452.306641	11110.872070
1451.277344	10984.595703
1450.249023	10780.603516
1449.219727	10596.133789
1448.191406	10368.013672
1447.162109	10142.416016
1446.131836	10082.032227
1445.102539	10021.671875
1444.072266	10087.552734
1443.041992	9898.598633
1442.011719	9789.789063
1440.981445	10001.217773
1439.950195	9686.287109
1438.918945	9560.614258
1437.887695	9466.507813
1436.856445	9418.489258
1435.825195	9518.305664
1434.792969	9312.821289
1433.760742	9206.731445
1432.728516	9178.178711
1431.696289	9181.112305
1430.663086	9171.941406
1429.629883	9140.992188
1428.596680	9018.107422
1427.563477	8965.429688
1426.530273	8932.122070
1425.496094	8753.738281
1424.461914	8836.535156
1423.427734	8779.101563
1422.393555	8709.609375
1421.358398	8570.076172
1420.323242	8771.207031
1419.288086	8638.963867
1418.252930	8588.873047
1417.217773	8589.499023
1416.181641	8657.706055
1415.145508	8851.367188
1414.109375	8731.305664
1413.073242	8883.863281
1412.036133	8800.018555
1411.000000	8909.097656
1409.962891	9107.323242
1408.924805	9237.982422
1407.887695	9197.503906
1406.849609	9542.500000
1405.812500	9957.202148
1404.773438	10186.305664
1403.735352	10323.824219
1402.697266	10569.604492
1401.658203	10639.599609
1400.619141	10851.524414
1399.580078	11039.304688
1398.540039	10822.949219
1397.500977	11005.846680
1396.460938	10989.126953
1395.420898	10734.457031
1394.380859	10902.837891
1393.339844	10607.447266
1392.298828	10511.552734
1391.257813	10384.476563
1390.216797	10430.332031
1389.175781	10435.356445
1388.133789	10461.980469
1387.091797	10685.357422
1386.049805	10707.118164
1385.007813	11074.264648
1383.964844	11342.935547
1382.922852	11748.156250
1381.879883	11983.013672
1380.835938	12299.256836
1379.792969	12672.872070
1378.749023	13019.979492
1377.706055	12928.641602
1376.661133	13337.807617
1375.617188	13588.792969
1374.573242	13669.728516
1373.528320	13583.113281
1372.483398	13582.666992
1371.438477	13201.878906
1370.392578	12840.381836
1369.347656	13024.201172
1368.301758	12485.987305
1367.255859	12445.134766
1366.208984	12131.886719
1365.163086	11911.942383
1364.116211	11627.597656
1363.069336	11613.224609
1362.022461	11300.409180
1360.974609	11364.881836
1359.927734	11076.114258
1358.879883	11162.080078
1357.832031	11083.404297
1356.783203	11274.275391
1355.735352	11255.222656
1354.686523	11383.989258
1353.637695	11546.072266
1352.588867	11739.066406
1351.539063	12103.524414
1350.490234	12277.262695
1349.440430	12736.716797
1348.390625	13005.491211
1347.339844	13790.739258
1346.290039	14078.218750
1345.239258	14401.270508
1344.188477	15059.637695
1343.137695	15339.532227
1342.085938	15816.689453
1341.034180	16243.715820
1339.982422	16468.509766
1338.930664	16517.337891
1337.878906	16879.791016
1336.826172	17265.845703
1335.773438	17008.085938
1334.720703	17092.376953
1333.667969	17103.033203
1332.614258	16631.841797
1331.561523	16336.456055
1330.507813	15936.799805
1329.453125	15923.963867
1328.399414	15379.890625
1327.344727	15149.033203
1326.290039	14766.550781
1325.235352	14519.325195
1324.180664	14151.352539
1323.125000	13793.009766
1322.070313	13498.769531
1321.014648	13270.958984
1319.958008	13097.699219
1318.902344	12713.836914
1317.845703	12533.665039
1316.789063	12320.442383
1315.732422	12187.740234
1314.675781	12036.171875
1313.618164	11544.158203
1312.560547	11815.967773
1311.502930	11260.388672
1310.445313	11253.291016
1309.386719	10948.501953
1308.329102	11118.632813
1307.270508	10939.166992
1306.210938	10778.665039
1305.152344	10693.770508
1304.092773	10460.221680
1303.033203	10417.902344
1301.973633	10262.361328
1300.914063	10231.893555
1299.853516	10210.870117
1298.792969	9791.409180
1297.732422	10119.348633
1296.671875	9761.355469
1295.611328	9632.062500
1294.549805	9571.137695
1293.488281	9583.249023
1292.426758	9458.782227
1291.364258	9028.322266
1290.302734	9513.630859
1289.240234	9269.243164
1288.177734	9481.380859
1287.114258	9406.459961
1286.051758	9458.562500
1284.988281	9560.016602
1283.924805	9475.721680
1282.861328	9560.676758
1281.796875	9868.818359
1280.732422	9909.018555
1279.667969	10181.723633
1278.603516	10247.669922
1277.539063	10379.322266
1276.473633	10762.073242
1275.408203	10907.641602
1274.342773	11151.688477
1273.277344	11172.786133
1272.210938	11243.124023
1271.145508	11085.990234
1270.079102	10748.414063
1269.011719	11001.607422
1267.945313	10596.236328
1266.877930	10511.995117
1265.810547	10305.990234
1264.743164	10125.832031
1263.674805	9807.613281
1262.607422	9454.416992
1261.539063	9723.885742
1260.470703	9284.284180
1259.401367	9244.886719
1258.333008	9065.176758
1257.263672	9002.458008
1256.194336	9019.250977
1255.125000	8732.185547
1254.054688	8800.436523
1252.985352	8716.797852
1251.915039	8815.387695
1250.843750	8708.425781
1249.773438	8888.693359
1248.702148	8704.727539
1247.630859	8632.863281
1246.559570	8628.696289
1245.488281	8643.192383
1244.416016	8704.329102
1243.343750	8569.562500
1242.271484	8381.232422
1241.199219	8526.294922
1240.125977	8496.517578
1239.053711	8615.863281
1237.980469	8581.418945
1236.906250	8675.077148
1235.833008	8461.348633
1234.758789	8696.992188
1233.684570	8662.557617
1232.610352	8616.501953
1231.536133	8684.458984
1230.460938	8594.225586
1229.385742	8778.427734
1228.310547	8792.832031
1227.235352	8888.583984
1226.159180	8823.943359
1225.083008	8759.330078
1224.006836	8708.681641
1222.930664	8750.951172
1221.853516	8825.708984
1220.777344	8826.147461
1219.700195	8678.044922
1218.622070	8606.580078
1217.544922	8618.663086
1216.466797	8767.588867
1215.388672	8937.321289
1214.310547	8710.520508
1213.232422	8569.582031
1212.153320	8767.055664
1211.074219	8892.617188
1209.995117	8835.122070
1208.916016	8775.333984
1207.835938	8954.067383
1206.755859	8894.278320
1205.675781	8818.312500
1204.595703	8823.369141
1203.514648	8798.346680
1202.434570	8868.168945
1201.353516	8715.957031
1200.271484	8764.957031
1199.190430	8751.523438
1198.108398	8678.006836
1197.026367	8796.298828
1195.944336	8750.523438
1194.862305	8614.695313
1193.779297	8608.231445
1192.696289	8433.244141
1191.613281	8334.497070
1190.530273	8358.094727
1189.446289	8197.113281
1188.362305	8195.356445
1187.278320	8108.273438
1186.194336	8104.229004
1185.109375	8081.744629
1184.024414	8112.275391
1182.939453	7859.384766
1181.854492	7998.219727
1180.768555	7826.070801
1179.683594	7914.193848
1178.597656	7825.013184
1177.510742	7887.778809
1176.424805	7736.509277
1175.337891	7836.076660
1174.250977	7781.488770
1173.164063	7853.406250
1172.077148	7877.009277
1170.989258	7785.666992
1169.901367	7751.818359
1168.813477	7708.792969
1167.724609	7709.431641
1166.636719	7762.894531
1165.547852	7768.112793
1164.458984	7855.974609
1163.369141	7631.645996
1162.280273	7662.129395
1161.190430	7729.307129
1160.100586	7647.361328
1159.010742	7751.203613
1157.919922	7799.974609
1156.829102	7887.692383
1155.738281	7789.737793
1154.647461	7774.311523
1153.555664	7713.074707
1152.464844	7777.830078
1151.373047	7867.744629
1150.280273	7882.072754
1149.188477	8143.585449
1148.095703	8265.397461
1147.002930	7872.395996
1145.910156	7969.051758
1144.817383	8097.680664
1143.723633	7931.315430
1142.629883	8151.329590
1141.536133	8090.149902
1140.441406	8008.431641
1139.347656	8164.322754
1138.252930	8043.796875
1137.158203	8099.142090
1136.062500	8012.924316
1134.967773	7990.650391
1133.872070	7902.209961
1132.776367	7900.500488
1131.679688	7912.476563
1130.583984	7970.055176
1129.487305	7954.650391
1128.390625	8076.017578
1127.292969	8026.411133
1126.196289	8017.837891
1125.098633	8032.046875
1124.000977	7991.589844
1122.903320	7987.581543
1121.804688	7894.791504
1120.706055	8027.362793
1119.607422	7971.010742
1118.508789	7857.808105
1117.409180	7821.986328
1116.310547	7931.715820
1115.210938	7707.191406
1114.110352	7837.353516
1113.010742	7862.922852
1111.910156	7765.791016
1110.809570	7925.383789
1109.708984	7916.849609
1108.607422	7717.592773
1107.506836	8022.373535
1106.405273	7736.935059
1105.303711	7828.285645
1104.201172	7688.201172
1103.098633	7670.652832
1101.996094	7582.816895
1100.893555	7501.819336
1099.791016	7636.183594
1098.687500	7639.054688
1097.583984	7764.267090
1096.480469	7538.330078
1095.376953	7776.739746
1094.272461	7609.764648
1093.167969	7381.743164
1092.063477	7633.608398
1090.958008	7525.600586
1089.853516	7587.301758
1088.748047	7617.312012
1087.642578	7531.987793
1086.536133	7704.418945
1085.430664	7576.167969
1084.324219	7565.477051
1083.217773	7590.937500
1082.110352	7693.182617
1081.003906	7571.817871
1079.896484	7655.959473
1078.789063	7633.973145
1077.680664	7546.550293
1076.573242	7619.358398
1075.464844	7597.392578
1074.356445	7717.517578
1073.247070	7639.168945
1072.138672	7675.822266
1071.029297	7712.459473
1069.919922	7679.227051
1068.809570	7589.688965
1067.700195	7671.364746
1066.589844	7602.132324
1065.479492	7704.030273
1064.368164	7666.331055
1063.257813	7599.393555
1062.146484	7608.979492
1061.035156	7737.775879
1059.922852	7623.638672
1058.811523	7626.465820
1057.699219	7847.334961
1056.586914	7620.877441
1055.473633	7587.750977
1054.361328	7678.190430
1053.248047	7788.802734
1052.134766	7692.787598
1051.021484	7704.569824
1049.907227	7655.747070
1048.792969	7743.825195
1047.678711	7647.901367
1046.564453	7563.233887
1045.449219	7732.000977
1044.333984	7907.418945
1043.218750	7820.506348
1042.103516	7874.813477
1040.987305	7774.501953
1039.871094	7741.434082
1038.754883	7739.732910
1037.638672	7787.290527
1036.521484	7863.926758
1035.404297	7877.864258
1034.287109	7979.058594
1033.169922	7843.081055
1032.051758	8024.752930
1030.933594	7915.656250
1029.815430	8025.692871
1028.697266	8120.034668
1027.578125	8017.690918
1026.458984	8074.011719
1025.339844	8027.562012
1024.220703	8182.111328
1023.100586	8077.608398
1021.980469	8238.773438
1020.860352	8261.505859
1019.740234	8241.835938
1018.619141	8342.628906
1017.498047	8293.955078
1016.376953	8323.341797
1015.255859	8361.630859
1014.133789	8143.604004
1013.011719	8215.336914
1011.889648	8217.979492
1010.767578	8184.984375
1009.644531	8294.512695
1008.521484	8168.012695
1007.398438	8266.366211
1006.274414	8442.559570
1005.151367	8213.769531
1004.027344	8267.560547
1002.902344	8114.517578
1001.778320	8208.324219
1000.653320	8179.835938
999.528320	8180.249023
998.403320	8382.845703
997.278320	8087.778320
996.152344	8048.234863
995.026367	8146.368164
993.900391	8197.840820
992.773438	8198.245117
991.646484	8025.578125
990.519531	7999.398926
989.392578	8146.224121
988.265625	8015.811523
987.137695	8042.854492
986.009766	8169.622559
984.881836	8143.436523
983.752930	8285.632813
982.624023	8075.593262
981.495117	7996.296875
980.366211	8058.727051
979.236328	8176.465332
978.106445	8033.021484
976.976563	8068.850586
975.846680	8226.321289
974.715820	8111.708984
973.585938	7999.357910
972.454102	8094.843262
971.323242	8053.264648
970.191406	8139.855957
969.060547	7928.189453
967.927734	8012.560059
966.795898	8229.375000
965.663086	8249.620117
964.530273	8097.705566
963.397461	8343.040039
962.264648	8372.069336
961.130859	8376.823242
959.997070	8471.983398
958.863281	8675.125977
957.729492	8571.804688
956.594727	8514.805664
955.459961	8576.799805
954.325195	8339.207031
953.189453	8365.976563
952.053711	8265.038086
950.917969	8179.551270
949.782227	8140.315918
948.646484	8142.901855
947.509766	7976.108398
946.373047	7943.540527
945.235352	7961.557129
944.098633	7926.807129
942.960938	7914.049805
941.823242	7727.714844
940.685547	7888.549805
939.546875	7981.227539
938.408203	7852.090332
937.269531	8069.865234
936.129883	8021.971680
934.991211	7912.658691
933.851563	8106.139648
932.711914	8137.228027
931.571289	8063.045410
930.431641	8028.357422
929.291016	8092.317871
928.149414	8009.427734
927.008789	8187.287109
925.867188	8095.649902
924.725586	8122.306641
923.583984	7956.283691
922.441406	7991.714355
921.299805	7950.533691
920.157227	7961.880859
919.013672	7936.035645
917.871094	7938.631836
916.727539	7696.342285
915.583984	7661.828125
914.439453	7762.828613
913.295898	7693.354004
912.151367	7639.201172
911.006836	7751.056641
909.861328	7694.729980
908.716797	7459.419922
907.571289	7651.992676
906.424805	7693.916504
905.279297	7709.642090
904.132813	7725.360352
902.986328	7719.264648
901.839844	7700.090820
900.692383	7569.764648
899.545898	7648.691895
898.398438	7538.041992
897.250000	7564.664063
896.102539	7752.419434
894.954102	7768.094238
893.805664	7864.297852
892.656250	7795.068359
891.507813	7660.598145
890.358398	7724.131348
889.208984	7676.724609
888.058594	7655.429688
886.908203	7636.316895
885.758789	7745.433594
884.607422	7685.025879
883.457031	7598.577148
882.305664	7694.596191
881.154297	7690.691895
880.002930	7450.171875
878.850586	7431.130859
877.698242	7520.588867
876.545898	7681.593750
875.393555	7499.848633
874.240234	7430.938965
873.086914	7385.906250
871.933594	7598.810547
870.780273	7512.588379
869.625977	7463.232910
868.471680	7465.880859
867.317383	7444.707520
866.162109	7466.841309
865.007813	7462.991699
863.852539	7396.388184
862.696289	7511.544922
861.541016	7589.878906
860.384766	7544.914551
859.228516	7419.976074
858.072266	7446.399414
856.915039	7416.623535
855.757813	7628.839844
854.600586	7445.671387
853.442383	7426.711914
852.285156	7396.964355
851.126953	7250.666992
849.968750	7551.159668
848.809570	7417.837402
847.650391	7556.371582
846.491211	7468.396484
845.332031	7432.208008
844.171875	7503.817871
843.012695	7489.187988
841.851563	7444.398438
840.691406	7341.465820
839.530273	7441.026855
838.369141	7402.736328
837.208008	7431.197266
836.046875	7401.534180
834.884766	7412.767090
833.722656	7391.725586
832.560547	7355.637207
831.397461	7334.616699
830.234375	7483.438965
829.071289	7443.054199
827.908203	7417.728516
826.744141	7394.562500
825.580078	7371.405762
824.416016	7423.416992
823.251953	7475.403320
822.086914	7516.634277
820.921875	7523.510742
819.756836	7386.641602
818.590820	7547.978027
817.425781	7552.696777
816.259766	7460.935059
815.092773	7390.648926
813.926758	7487.546387
812.759766	7502.984375
811.592773	7494.852539
810.424805	7345.384277
809.257813	7444.342285
808.089844	7359.167969
806.920898	7430.255859
805.752930	7452.101074
804.583984	7307.087402
803.415039	7512.867676
802.246094	7267.414063
801.076172	7302.099609
799.906250	7283.339844
798.736328	7245.358887
797.566406	7376.150391
796.395508	7368.063477
795.224609	7458.198242
794.053711	7631.544434
792.881836	7527.363281
791.710938	7660.072754
790.538086	7779.921875
789.366211	7648.050293
788.194336	7561.016113
787.021484	7680.803711
785.848633	7517.073730
784.674805	7724.178711
783.500977	7637.204102
782.327148	7488.502930
781.153320	7422.914063
779.979492	7542.565430
778.804688	7570.641113
777.629883	7322.077637
776.454102	7469.324707
775.279297	7403.812012
774.103516	7314.937500
772.927734	7334.526367
771.750977	7424.246094
770.575195	7443.799805
769.398438	7476.091309
768.220703	7427.654785
767.043945	7453.562988
765.866211	7498.566406
764.688477	7501.097168
763.510742	7537.579590
762.332031	7627.084473
761.153320	7580.797363
759.974609	7691.455566
758.794922	7819.024414
757.616211	7793.919434
756.436523	7764.587402
755.255859	7843.319824
754.076172	8055.461914
752.895508	8146.796875
751.714844	8202.096680
750.533203	8460.577148
749.352539	8782.425781
748.170898	8892.550781
746.988281	9326.260742
745.806641	10017.777344
744.624023	10789.319336
743.441406	11989.614258
742.258789	13392.238281
741.075195	15381.592773
739.891602	17682.664063
738.708008	20288.904297
737.523438	22839.052734
736.339844	25413.359375
735.155273	27036.787109
733.969727	27832.369141
732.785156	27119.314453
731.599609	25906.755859
730.414063	23488.687500
729.227539	20791.363281
728.041992	18122.669922
726.855469	15653.264648
725.667969	13680.034180
724.481445	12181.576172
723.293945	11056.495117
722.106445	10222.436523
720.918945	9635.001953
719.730469	9184.605469
718.541992	8732.312500
717.353516	8551.536133
716.164063	8078.566895
714.975586	8019.951172
713.786133	8020.209961
712.595703	7879.684570
711.406250	7707.711914
710.215820	7672.335449
709.025391	7685.270508
707.833984	7725.489746
706.642578	7431.975586
705.451172	7633.806641
704.259766	7548.136230
703.068359	7447.823242
701.875977	7496.435547
700.683594	7427.625488
699.490234	7551.673340
698.297852	7654.708496
697.104492	7715.796387
695.910156	7623.957520
694.716797	7582.416504
693.522461	7743.966309
692.328125	7905.441406
691.132813	7972.675781
689.938477	7897.617188
688.743164	8029.661133
687.547852	7998.536133
686.351563	8136.766602
685.155273	7980.220703
683.958984	7869.718750
682.762695	7769.713379
681.565430	7822.229980
680.368164	7676.339355
679.170898	7741.378418
677.973633	7614.357910
676.775391	7585.474609
675.577148	7625.451660
674.378906	7642.466309
673.179688	7569.802246
671.980469	7420.031250
670.781250	7607.999023
669.581055	7460.371094
668.381836	7737.829102
667.181641	7592.321289
665.980469	7609.311523
664.780273	7757.458496
663.579102	7951.329590
662.377930	7691.448242
661.175781	7862.357910
659.973633	8024.868164
658.771484	8025.095215
657.569336	8110.564941
656.367188	8206.387695
655.164063	8420.619141
653.960938	8331.413086
652.756836	8626.526367
651.552734	8458.398438
650.348633	8462.672852
649.144531	8701.503906
647.939453	8722.322266
646.735352	8722.381836
645.529297	8747.333008
644.324219	8734.942383
643.118164	8772.317383
641.912109	8672.866211
640.706055	8786.915039
639.499023	8633.634766
638.292969	8751.782227
637.084961	8824.313477
635.877930	8903.021484
634.669922	9130.732422
633.461914	9010.659180
632.253906	9339.621094
631.044922	9445.026367
629.836914	9482.134766
628.626953	9541.969727
627.417969	9496.353516
626.208008	9180.027344
624.998047	9117.984375
623.788086	9093.152344
622.577148	8837.028320
621.366211	8768.912109
620.155273	8508.851563
618.944336	8343.843750
617.732422	8135.583008
616.520508	8123.386230
615.308594	8001.890137
614.095703	7985.604980
612.882813	7732.267090
611.669922	7728.416016
610.457031	7642.148926
609.243164	7475.583008
608.029297	7512.981934
606.815430	7591.543457
605.600586	7443.630371
604.385742	7326.655762
603.170898	7586.270508
601.955078	7374.689453
600.740234	7442.906250
599.524414	7422.676758
598.307617	7414.790527
597.091797	7376.079102
595.875000	7366.151367
594.658203	7313.088867
593.440430	7418.189941
592.222656	7350.765625
591.004883	7427.069336
589.787109	7355.568359
588.568359	7419.523438
587.349609	7487.550781
586.130859	7457.102539
584.912109	7631.711426
583.692383	7482.345215
582.472656	7554.392090
581.251953	7650.993164
580.032227	7776.228516
578.811523	7626.965332
577.589844	7746.004395
576.369141	7631.617188
575.147461	7773.111816
573.925781	7669.001465
572.703125	7839.060547
571.481445	7792.248047
570.258789	8062.390625
569.035156	8121.848633
567.812500	7958.505371
566.588867	8077.214844
565.365234	8079.427246
564.140625	8083.680176
562.916992	7991.961426
561.692383	7934.989258
560.466797	7937.230469
559.242188	7963.955566
558.016602	7809.107910
556.791016	7931.707031
555.564453	7954.335449
554.337891	7864.831055
553.111328	7948.606445
551.884766	7822.466309
550.657227	7875.654297
549.429688	7863.643066
548.202148	7778.333496
546.974609	7752.099609
545.746094	7803.217285
544.517578	7954.016113
543.288086	7824.007324
542.058594	7938.121094
540.829102	8009.479980
539.599609	7956.798340
538.370117	7999.665039
537.139648	7753.972656
535.909180	7861.873047
534.677734	7890.513184
533.446289	7884.620605
532.214844	7777.226074
530.983398	7769.332031
529.750977	7828.402344
528.519531	7729.208984
527.286133	7642.230469
526.053711	7457.960938
524.820313	7529.210449
523.586914	7574.078613
522.353516	7734.424805
521.119141	7801.507324
519.884766	7785.518555
518.650391	7660.191895
517.415039	7545.045410
516.179688	7516.981934
514.944336	7626.528320
513.708984	7626.780762
