#Wave		#Intensity
1585.210938	9496.049805
1584.209961	9526.021484
1583.208984	9571.493164
1582.208008	9671.871094
1581.206055	9767.214844
1580.204102	9705.297852
1579.202148	9630.930664
1578.200195	9728.716797
1577.198242	9784.064453
1576.195313	9836.894531
1575.192383	9747.602539
1574.189453	9847.775391
1573.186523	9716.153320
1572.182617	9933.387695
1571.178711	9866.566406
1570.174805	9974.101563
1569.170898	9747.944336
1568.166992	9925.161133
1567.162109	9873.329102
1566.158203	9749.354492
1565.153320	9752.311523
1564.147461	9790.088867
1563.142578	9628.906250
1562.136719	9534.919922
1561.130859	9761.636719
1560.125000	9647.778320
1559.119141	9864.438477
1558.113281	9812.710938
1557.106445	9798.260742
1556.099609	9880.661133
1555.092773	9769.376953
1554.084961	9772.318359
1553.078125	9703.290039
1552.070313	9842.706055
1551.062500	9813.381836
1550.054688	9855.992188
1549.045898	9777.083008
1548.038086	9611.439453
1547.029297	9673.892578
1546.020508	9753.665039
1545.011719	9635.201172
1544.001953	9333.484375
1542.992188	9358.793945
1541.982422	9396.472656
1540.972656	9458.889648
1539.962891	9340.607422
1538.952148	9083.802734
1537.942383	9289.734375
1536.931641	9107.249023
1535.919922	9226.538086
1534.909180	9281.493164
1533.897461	9190.583008
1532.886719	9087.352539
1531.874023	9179.364258
1530.862305	9362.742188
1529.850586	9195.323242
1528.837891	9146.500977
1527.825195	9159.420898
1526.812500	9303.155273
1525.799805	9106.271484
1524.786133	9232.686523
1523.772461	9309.711914
1522.758789	9342.312500
1521.745117	9471.064453
1520.731445	9281.742188
1519.716797	9430.170898
1518.702148	9337.041016
1517.687500	9347.425781
1516.672852	9379.975586
1515.657227	9461.765625
1514.642578	9521.361328
1513.626953	9593.240234
1512.610352	9682.317383
1511.594727	9599.109375
1510.579102	9459.352539
1509.562500	9437.715820
1508.545898	9489.862305
1507.529297	9423.971680
1506.511719	9505.596680
1505.494141	9643.711914
1504.477539	9415.660156
1503.458984	9507.060547
1502.441406	9495.266602
1501.423828	9380.342773
1500.405273	9317.022461
1499.386719	9410.820313
1498.368164	9362.243164
1497.348633	9590.937500
1496.330078	9400.066406
1495.310547	9358.877930
1494.291016	9440.307617
1493.271484	9480.027344
1492.250977	9446.199219
1491.231445	9640.282227
1490.210938	9439.834961
1489.190430	9638.736328
1488.168945	9465.309570
1487.148438	9536.802734
1486.126953	9515.242188
1485.105469	9616.062500
1484.083984	9587.153320
1483.061523	9751.523438
1482.040039	9996.541992
1481.017578	9935.779297
1479.995117	10051.075195
1478.971680	10190.767578
1477.949219	10235.088867
1476.925781	10328.258789
1475.902344	10509.333984
1474.878906	10565.772461
1473.855469	10680.791992
1472.831055	10688.341797
1471.806641	10627.543945
1470.782227	10630.220703
1469.757813	10615.816406
1468.733398	10772.171875
1467.708008	10835.786133
1466.682617	10965.208008
1465.657227	10955.620117
1464.631836	11250.700195
1463.605469	11192.319336
1462.579102	11348.357422
1461.552734	11380.103516
1460.526367	11531.166016
1459.500000	11652.947266
1458.472656	11560.459961
1457.445313	11516.686523
1456.417969	11458.330078
1455.390625	11358.640625
1454.362305	10903.878906
1453.334961	10967.273438
1452.306641	10794.807617
1451.277344	10576.228516
1450.249023	10515.706055
1449.219727	10583.985352
1448.191406	10487.046875
1447.162109	10207.992188
1446.131836	10252.007813
1445.102539	10269.300781
1444.072266	10196.777344
1443.041992	10087.883789
1442.011719	10141.590820
1440.981445	10268.045898
1439.950195	10205.282227
1438.918945	10045.555664
1437.887695	9978.013672
1436.856445	10131.056641
1435.825195	9925.402344
1434.792969	9920.916992
1433.760742	10008.475586
1432.728516	9846.563477
1431.696289	9817.882813
1430.663086	9619.766602
1429.629883	9731.514648
1428.596680	9603.667969
1427.563477	9471.035156
1426.530273	9645.626953
1425.496094	9476.767578
1424.461914	9436.114258
1423.427734	9513.916992
1422.393555	9395.937500
1421.358398	9497.876953
1420.323242	9329.220703
1419.288086	9443.206055
1418.252930	9433.997070
1417.217773	9637.234375
1416.181641	9625.574219
1415.145508	9498.086914
1414.109375	9684.293945
1413.073242	9720.872070
1412.036133	9851.486328
1411.000000	10044.736328
1409.962891	10343.971680
1408.924805	10440.631836
1407.887695	10517.973633
1406.849609	10949.422852
1405.812500	11012.173828
1404.773438	11262.730469
1403.735352	11578.187500
1402.697266	11698.537109
1401.658203	12232.771484
1400.619141	12047.357422
1399.580078	12162.720703
1398.540039	12128.917969
1397.500977	12059.060547
1396.460938	11909.895508
1395.420898	11753.582031
1394.380859	11489.192383
1393.339844	11426.731445
1392.298828	11114.477539
1391.257813	10953.653320
1390.216797	10958.571289
1389.175781	10901.071289
1388.133789	10821.993164
1387.091797	10685.357422
1386.049805	10726.310547
1385.007813	10839.203125
1383.964844	10793.774414
1382.922852	11031.279297
1381.879883	11237.521484
1380.835938	11283.106445
1379.792969	11441.286133
1378.749023	11479.621094
1377.706055	11858.041016
1376.661133	12035.156250
1375.617188	12030.247070
1374.573242	12202.464844
1373.528320	12329.140625
1372.483398	12053.809570
1371.438477	12120.659180
1370.392578	12098.992188
1369.347656	11974.517578
1368.301758	11835.750977
1367.255859	11792.643555
1366.208984	11484.311523
1365.163086	11601.362305
1364.116211	11501.003906
1363.069336	11340.983398
1362.022461	11128.503906
1360.974609	11381.591797
1359.927734	11185.896484
1358.879883	11202.643555
1357.832031	10987.981445
1356.783203	11157.406250
1355.735352	11200.376953
1354.686523	11262.401367
1353.637695	11279.111328
1352.588867	11441.180664
1351.539063	11734.223633
1350.490234	11874.690430
1349.440430	12267.544922
1348.390625	12648.328125
1347.339844	13174.167969
1346.290039	13785.468750
1345.239258	14084.786133
1344.188477	14510.068359
1343.137695	15130.215820
1342.085938	15664.491211
1341.034180	16112.948242
1339.982422	16311.621094
1338.930664	16633.791016
1337.878906	17003.347656
1336.826172	17177.949219
1335.773438	17521.107422
1334.720703	17562.546875
1333.667969	17411.666016
1332.614258	17441.240234
1331.561523	17359.265625
1330.507813	17229.871094
1329.453125	16832.480469
1328.399414	16558.582031
1327.344727	16721.080078
1326.290039	16302.708984
1325.235352	16119.153320
1324.180664	16039.937500
1323.125000	15908.632813
1322.070313	15531.045898
1321.014648	15359.643555
1319.958008	14873.417969
1318.902344	14730.628906
1317.845703	14303.903320
1316.789063	13957.804688
1315.732422	13843.682617
1314.675781	13547.493164
1313.618164	13052.796875
1312.560547	12645.781250
1311.502930	12326.390625
1310.445313	12021.312500
1309.386719	11853.395508
1308.329102	11619.408203
1307.270508	11217.841797
1306.210938	11220.201172
1305.152344	10823.606445
1304.092773	10873.249023
1303.033203	10703.421875
1301.973633	10486.481445
1300.914063	10175.285156
1299.853516	10357.077148
1298.792969	10029.534180
1297.732422	10022.704102
1296.671875	9857.979492
1295.611328	9813.488281
1294.549805	9712.478516
1293.488281	9599.735352
1292.426758	9748.409180
1291.364258	9696.913086
1290.302734	9690.158203
1289.240234	9478.677734
1288.177734	9582.546875
1287.114258	9465.264648
1286.051758	9557.333984
1284.988281	9458.915039
1283.924805	9508.631836
1282.861328	9574.778320
1281.796875	9610.349609
1280.732422	9681.143555
1279.667969	9871.692383
1278.603516	9907.176758
1277.539063	10034.206055
1276.473633	10093.111328
1275.408203	10269.328125
1274.342773	10478.317383
1273.277344	10544.125977
1272.210938	10459.810547
1271.145508	10389.598633
1270.079102	10431.939453
1269.011719	10389.886719
1267.945313	10129.926758
1266.877930	10066.869141
1265.810547	9968.703125
1264.743164	10015.768555
1263.674805	9753.763672
1262.607422	9555.071289
1261.539063	9773.032227
1260.470703	9370.856445
1259.401367	9406.297852
1258.333008	9404.302734
1257.263672	9231.611328
1256.194336	9283.422852
1255.125000	9356.247070
1254.054688	9342.577148
1252.985352	9366.293945
1251.915039	9453.066406
1250.843750	9327.287109
1249.773438	9561.124023
1248.702148	9591.774414
1247.630859	9533.724609
1246.559570	9487.365234
1245.488281	9483.016602
1244.416016	9457.677734
1243.343750	9511.631836
1242.271484	9626.177734
1241.199219	9474.956055
1240.125977	9386.716797
1239.053711	9438.307617
1237.980469	9180.068359
1236.906250	9397.030273
1235.833008	9420.642578
1234.758789	9204.471680
1233.684570	9256.042969
1232.610352	9288.975586
1231.536133	9391.685547
1230.460938	9240.827148
1229.385742	9273.740234
1228.310547	9383.360352
1227.235352	9446.445313
1226.159180	9332.883789
1225.083008	9298.366211
1224.006836	9328.905273
1222.930664	9157.377930
1221.853516	9297.063477
1220.777344	9436.688477
1219.700195	9242.037109
1218.622070	9342.165039
1217.544922	9205.613281
1216.466797	9217.565430
1215.388672	9252.701172
1214.310547	9074.521484
1213.232422	9202.391602
1212.153320	9098.456055
1211.074219	9166.022461
1209.995117	9025.074219
1208.916016	9053.253906
1207.835938	9092.998047
1206.755859	9010.029297
1205.675781	8934.038086
1204.595703	8747.005859
1203.514648	8872.379883
1202.434570	8930.621094
1201.353516	8831.583984
1200.271484	8875.934570
1199.190430	8846.296875
1198.108398	8860.580078
1197.026367	8720.049805
1195.944336	8861.407227
1194.862305	8623.933594
1193.779297	8760.630859
1192.696289	8659.484375
1191.613281	8606.851563
1190.530273	8468.859375
1189.446289	8478.579102
1188.362305	8672.823242
1187.278320	8498.004883
1186.194336	8486.960938
1185.109375	8565.819336
1184.024414	8619.292969
1182.939453	8329.426758
1181.854492	8394.445313
1180.768555	8358.096680
1179.683594	8231.958984
1178.597656	8398.249023
1177.510742	8276.758789
1176.424805	8261.173828
1175.337891	8204.183594
1174.250977	8434.738281
1173.164063	8094.873047
1172.077148	8431.113281
1170.989258	8424.703125
1169.901367	8553.888672
1168.813477	8292.409180
1167.724609	8311.300781
1166.636719	8346.259766
1165.547852	8344.463867
1164.458984	8363.330078
1163.369141	8490.062500
1162.280273	8366.614258
1161.190430	8353.340820
1160.100586	8443.291992
1159.010742	8482.751953
1157.919922	8370.872070
1156.829102	8304.884766
1155.738281	8303.095703
1154.647461	8514.394531
1153.555664	8363.658203
1152.464844	8389.337891
1151.373047	8426.455078
1150.280273	8312.461914
1149.188477	8635.679688
1148.095703	8462.192383
1147.002930	8483.244141
1145.910156	8415.081055
1144.817383	8326.364258
1143.723633	8306.275391
1142.629883	8359.341797
1141.536133	8359.821289
1140.441406	8273.475586
1139.347656	8305.953125
1138.252930	8205.951172
1137.158203	8384.564453
1136.062500	8298.285156
1134.967773	8424.304688
1133.872070	8253.622070
1132.776367	8302.027344
1131.679688	8432.524414
1130.583984	8544.719727
1129.487305	8437.994141
1128.390625	8484.035156
1127.292969	8468.524414
1126.196289	8612.510742
1125.098633	8512.694336
1124.000977	8533.624023
1122.903320	8490.790039
1121.804688	8454.802734
1120.706055	8582.700195
1119.607422	8630.900391
1118.508789	8478.879883
1117.409180	8602.137695
1116.310547	8422.900391
1115.210938	8689.346680
1114.110352	8664.731445
1113.010742	8490.138672
1111.910156	8581.449219
1110.809570	8702.249023
1109.708984	8632.227539
1108.607422	8668.952148
1107.506836	8549.026367
1106.405273	8517.664063
1105.303711	8563.463867
1104.201172	8532.111328
1103.098633	8364.686523
1101.996094	8437.698242
1100.893555	8283.967773
1099.791016	8320.698242
1098.687500	8382.338867
1097.583984	8258.171875
1096.480469	8326.592773
1095.376953	8073.406738
1094.272461	7958.441895
1093.167969	8214.764648
1092.063477	7995.712891
1090.958008	8102.578613
1089.853516	7933.413086
1088.748047	8108.094727
1087.642578	7961.611816
1086.536133	7935.008789
1085.430664	7989.783691
1084.324219	7967.704102
1083.217773	7993.076660
1082.110352	7876.138184
1081.003906	8007.654785
1079.896484	7816.257813
1078.789063	7999.645508
1077.680664	7846.697266
1076.573242	7948.770996
1075.464844	7795.899414
1074.356445	7915.980957
1073.247070	7972.875488
1072.138672	7939.573242
1071.029297	8000.943848
1069.919922	7882.023438
1068.809570	7819.474609
1067.700195	7995.697266
1066.589844	7939.904785
1065.479492	7944.921875
1064.368164	8084.985840
1063.257813	8011.205566
1062.146484	7926.207520
1061.035156	7978.457031
1059.922852	8003.696289
1058.811523	7927.747070
1057.699219	8033.908691
1056.586914	7969.221680
1055.473633	7929.278320
1054.361328	8105.005859
1053.248047	8004.409668
1052.134766	7897.120117
1051.021484	8050.288086
1049.907227	7985.678223
1048.792969	8089.391602
1047.678711	7878.976074
1046.564453	8137.429688
1045.449219	8110.976563
1044.333984	8095.744141
1043.218750	8264.318359
1042.103516	8325.250977
1040.987305	8191.233398
1039.871094	8231.994141
1038.754883	8386.950195
1037.638672	8300.024414
1036.521484	8188.512695
1035.404297	8470.942383
1034.287109	8363.915039
1033.169922	8469.453125
1032.051758	8597.310547
1030.933594	8492.560547
1029.815430	8387.855469
1028.697266	8497.762695
1027.578125	8335.001953
1026.458984	8359.975586
1025.339844	8617.232422
1024.220703	8561.740234
1023.100586	8597.807617
1021.980469	8696.359375
1020.860352	8562.776367
1019.740234	8730.456055
1018.619141	8822.217773
1017.498047	8666.391602
1016.376953	8733.600586
1015.255859	8751.736328
1014.133789	8593.797852
1013.011719	8879.337891
1011.889648	8676.884766
1010.767578	8541.336914
1009.644531	8820.017578
1008.521484	8704.532227
1007.398438	8564.614258
1006.274414	8673.984375
1005.151367	8583.078125
1004.027344	8585.629883
1002.902344	8483.662109
1001.778320	8508.465820
1000.653320	8475.465820
999.528320	8475.813477
998.403320	8545.036133
997.278320	8483.170898
996.152344	8461.306641
995.026367	8295.129883
993.900391	8311.051758
992.773438	8409.082031
991.646484	8265.213867
990.519531	8243.417969
989.392578	8270.424805
988.265625	8290.765625
987.137695	8277.843750
986.009766	8315.904297
984.881836	8325.140625
983.752930	8132.769531
982.624023	8257.216797
981.495117	8335.104492
980.366211	8255.767578
979.236328	8245.082031
978.106445	8210.057617
976.976563	8201.597656
975.846680	8153.326172
974.715820	8253.244141
973.585938	8213.824219
972.454102	8236.315430
971.323242	8263.215820
970.191406	8254.750977
969.060547	8429.637695
967.927734	8500.646484
966.795898	8600.326172
965.663086	8735.282227
964.530273	9013.635742
963.397461	9066.794922
962.264648	9367.010742
961.130859	9470.794922
959.997070	9731.093750
958.863281	10006.708008
957.729492	9971.417969
956.594727	9803.925781
955.459961	9852.414063
954.325195	9680.616211
953.189453	9431.818359
952.053711	9169.920898
950.917969	8886.126953
949.782227	8910.554688
948.646484	8684.148438
947.509766	8545.830078
946.373047	8528.530273
945.235352	8300.159180
944.098633	8304.902344
942.960938	8171.185059
941.823242	8237.475586
940.685547	8020.354980
939.546875	7902.162109
938.408203	8163.890625
937.269531	8131.333008
936.129883	8177.802246
934.991211	8151.837891
933.851563	8226.799805
932.711914	8078.008301
931.571289	8010.417480
930.431641	8225.667969
929.291016	8039.713379
928.149414	7939.303711
927.008789	8053.644043
925.867188	8135.076660
924.725586	8096.028320
923.583984	7958.473145
922.441406	7921.668945
921.299805	7996.490234
920.157227	7950.940918
919.013672	7931.660645
917.871094	7897.079590
916.727539	7989.328125
915.583984	7797.358398
914.439453	7979.191406
913.295898	7887.817871
912.151367	7702.551758
911.006836	7692.088379
909.861328	7948.018555
908.716797	7747.580078
907.571289	7896.437012
906.424805	7820.475586
905.279297	7742.365723
904.132813	7771.163086
902.986328	7861.002930
901.839844	7767.673828
900.692383	7752.851563
899.545898	7840.453613
898.398438	7801.655762
897.250000	7625.651855
896.102539	7767.663086
894.954102	7722.374023
893.805664	7807.704590
892.656250	7901.700684
891.507813	7793.314941
890.358398	7739.357422
889.208984	7644.104004
888.058594	7659.777832
886.908203	7623.274414
885.758789	7554.188477
884.607422	7630.707031
883.457031	7602.921875
882.305664	7625.099121
881.154297	7610.354492
880.002930	7480.562988
878.850586	7574.371094
877.698242	7568.325195
876.545898	7490.692871
875.393555	7671.187012
874.240234	7413.592285
873.086914	7481.292480
871.933594	7525.120117
870.780273	7484.418945
869.625977	7435.069824
868.471680	7496.203613
867.317383	7459.865234
866.162109	7653.025391
865.007813	7493.293457
863.852539	7407.208008
862.696289	7489.910156
861.541016	7256.780762
860.384766	7464.902832
859.228516	7474.026367
858.072266	7396.684570
856.915039	7479.292969
855.757813	7423.589355
854.600586	7346.309570
853.442383	7394.318359
852.285156	7330.033691
851.126953	7473.000488
849.968750	7391.460938
848.809570	7249.544434
847.650391	7459.301270
846.491211	7474.866211
845.332031	7255.404785
844.171875	7262.384766
843.012695	7353.412598
841.851563	7390.531738
840.691406	7341.465820
839.530273	7481.946777
838.369141	7344.599609
837.208008	7190.092285
836.046875	7298.227051
834.884766	7320.241699
833.722656	7344.397461
832.560547	7465.326660
831.397461	7272.258301
830.234375	7234.062988
829.071289	7331.290039
827.908203	7336.073242
826.744141	7235.585449
825.580078	7223.204590
824.416016	7296.722656
823.251953	7372.353516
822.086914	7278.385742
820.921875	7231.668945
819.756836	7371.624023
818.590820	7251.979004
817.425781	7216.020508
816.259766	7158.638672
815.092773	7255.611328
813.926758	7095.382324
812.759766	7297.305664
811.592773	7278.510742
810.424805	7169.780273
809.257813	7189.560059
808.089844	7172.941406
806.920898	7265.472168
805.752930	7124.747559
804.583984	7206.550781
803.415039	7134.337402
802.246094	7177.613770
801.076172	7216.594727
799.906250	7221.363281
798.736328	7123.569824
797.566406	7094.177734
796.395508	7133.140137
795.224609	7255.355957
794.053711	7328.417480
792.881836	7281.929199
791.710938	7357.083984
790.538086	7494.067871
789.366211	7573.404297
788.194336	7494.916016
787.021484	7450.571289
785.848633	7457.397949
784.674805	7410.950195
783.500977	7390.086426
782.327148	7382.011230
781.153320	7335.610840
779.979492	7338.194336
778.804688	7385.472656
777.629883	7275.264160
776.454102	7171.487793
775.279297	7265.562012
774.103516	7261.776367
772.927734	7247.362305
771.750977	7419.995117
770.575195	7373.675781
769.398438	7297.633789
768.220703	7448.894531
767.043945	7224.222656
765.866211	7358.445801
764.688477	7303.700195
763.510742	7346.593750
762.332031	7223.983887
761.153320	7527.769531
759.974609	7466.670898
758.794922	7344.116211
757.616211	7395.426758
756.436523	7582.339844
755.255859	7440.772461
754.076172	7716.552246
752.895508	7695.726563
751.714844	7869.693848
750.533203	7937.744629
749.352539	8187.760742
748.170898	8501.133789
746.988281	8820.709961
745.806641	9013.250000
744.624023	9765.994141
743.441406	10854.490234
742.258789	12158.046875
741.075195	14090.637695
739.891602	16702.523438
738.708008	19427.253906
737.523438	22813.714844
736.339844	25582.232422
735.155273	28400.128906
733.969727	30182.855469
732.785156	30135.853516
731.599609	29087.101563
730.414063	26927.650391
729.227539	23968.142578
728.041992	20736.011719
726.855469	17794.025391
725.667969	15112.498047
724.481445	13289.375000
723.293945	11945.057617
722.106445	10900.284180
720.918945	10093.811523
719.730469	9531.790039
718.541992	9022.618164
717.353516	8646.178711
716.164063	8347.712891
714.975586	7986.315918
713.786133	7835.257813
712.595703	7558.193359
711.406250	7556.456543
710.215820	7540.017578
709.025391	7456.392090
707.833984	7345.513672
706.642578	7404.690918
705.451172	7348.430664
704.259766	7298.489746
703.068359	7273.740234
701.875977	7230.128906
700.683594	7121.547852
699.490234	7193.267578
698.297852	7214.662109
697.104492	7250.711426
695.910156	7177.830078
694.716797	7373.015137
693.522461	7342.008789
692.328125	7350.783691
691.132813	7351.183594
689.938477	7454.095215
688.743164	7454.470215
687.547852	7373.291016
686.351563	7359.048828
685.155273	7491.123535
683.958984	7403.721191
682.762695	7301.733887
681.565430	7327.205078
680.368164	7342.222168
679.170898	7398.987305
677.973633	7213.602051
676.775391	7307.931641
675.577148	7277.038574
674.378906	7333.764160
673.179688	7121.453125
671.980469	7176.102539
670.781250	7195.291016
669.581055	7339.504883
668.381836	7266.975586
667.181641	7454.847168
665.980469	7367.746094
664.780273	7257.783203
663.579102	7441.362305
662.377930	7445.888184
661.175781	7440.008789
659.973633	7598.456055
658.771484	7553.030762
657.569336	7617.818359
656.367188	7722.069336
655.164063	7637.161133
653.960938	7701.882813
652.756836	7762.419434
651.552734	7843.694824
650.348633	7885.483887
649.144531	7869.132324
647.939453	7915.045410
646.735352	7944.338867
645.529297	7975.692383
644.324219	7982.144531
643.118164	7806.139160
641.912109	8019.913574
640.706055	8169.344238
639.499023	7933.330566
638.292969	8107.567871
637.084961	8165.751465
635.877930	8418.531250
634.669922	8302.735352
633.461914	8385.666016
632.253906	8472.695313
631.044922	8547.272461
629.836914	8605.270508
628.626953	8729.403320
627.417969	8675.706055
626.208008	8644.766602
624.998047	8704.751953
623.788086	8733.723633
622.577148	8746.159180
621.366211	8640.898438
620.155273	8438.666992
618.944336	8401.629883
617.732422	8205.735352
616.520508	8170.831055
615.308594	8049.324219
614.095703	7884.573242
612.882813	7726.082520
611.669922	7569.725586
610.457031	7471.132813
609.243164	7454.983398
608.029297	7407.948730
606.815430	7354.758301
605.600586	7326.293945
604.385742	7186.708008
603.170898	7152.122559
601.955078	7140.180664
600.740234	7183.772461
599.524414	7157.434570
598.307617	7079.716797
597.091797	7139.732422
595.875000	7099.038574
594.658203	7041.929199
593.440430	7069.050293
592.222656	7089.998535
591.004883	7026.770996
589.787109	7039.508789
588.568359	7152.781738
587.349609	7140.867188
586.130859	7112.549805
584.912109	7112.951660
583.692383	7090.803223
582.472656	7259.266602
581.251953	7317.004883
580.032227	7233.367188
578.811523	7352.525879
577.589844	7176.776367
576.369141	7279.514648
575.147461	7392.438477
573.925781	7272.046875
572.703125	7462.654785
571.481445	7493.647461
570.258789	7471.461914
569.035156	7459.507813
567.812500	7617.193359
566.588867	7772.761230
565.365234	7746.444336
564.140625	7807.960938
562.916992	7685.678223
561.692383	7739.013184
560.466797	7588.229004
559.242188	7725.220703
558.016602	7690.788086
556.791016	7772.624512
555.564453	7450.689941
554.337891	7544.774414
553.111328	7649.004883
551.884766	7663.531250
550.657227	7570.080566
549.429688	7721.075195
548.202148	7745.754395
546.974609	7737.849121
545.746094	7760.476563
544.517578	7862.450195
543.288086	7878.934082
542.058594	8054.050781
540.829102	8233.152344
539.599609	8186.517090
538.370117	8190.713867
537.139648	7975.456543
535.909180	8203.164063
534.677734	8089.553223
533.446289	8004.422852
532.214844	7807.677246
530.983398	7621.170410
529.750977	7698.537598
528.519531	7625.747070
527.286133	7380.593750
526.053711	7518.792969
524.820313	7474.475098
523.586914	7596.373047
522.353516	7683.767090
521.119141	7635.388672
519.884766	7506.017578
518.650391	7417.204102
517.415039	7366.895508
516.179688	7381.376953
514.944336	7238.018555
513.708984	7272.752441
