#Wave		#Intensity
1585.210938	12418.294922
1584.209961	12258.446289
1583.208984	12470.659180
1582.208008	12308.291992
1581.206055	12398.097656
1580.204102	12378.060547
1579.202148	12153.435547
1578.200195	12400.372070
1577.198242	12340.441406
1576.195313	12066.091797
1575.192383	12420.090820
1574.189453	12447.427734
1573.186523	12404.978516
1572.182617	12474.661133
1571.178711	12265.330078
1570.174805	12148.231445
1569.170898	12066.038086
1568.166992	12422.010742
1567.162109	12003.797852
1566.158203	12140.659180
1565.153320	12262.537109
1564.147461	12217.712891
1563.142578	11827.241211
1562.136719	12056.017578
1561.130859	12093.292969
1560.125000	11988.893555
1559.119141	12036.105469
1558.113281	12021.192383
1557.106445	11993.866211
1556.099609	11906.954102
1555.092773	12046.001953
1554.084961	12041.025391
1553.078125	12043.495117
1552.070313	12001.303711
1551.062500	12212.153320
1550.054688	11971.533203
1549.045898	11996.330078
1548.038086	12026.074219
1547.029297	12090.505859
1546.020508	11986.402344
1545.011719	11862.520508
1544.001953	11919.513672
1542.992188	11971.529297
1541.982422	12179.511719
1540.972656	12073.019531
1539.962891	11691.846680
1538.952148	11788.405273
1537.942383	11983.880859
1536.931641	11993.767578
1535.919922	11781.083984
1534.909180	12114.895508
1533.897461	11860.251953
1532.886719	11884.981445
1531.874023	11912.171875
1530.862305	11717.015625
1529.850586	11860.311523
1528.837891	11865.263672
1527.825195	11996.125000
1526.812500	11991.172852
1525.799805	12003.497070
1524.786133	11917.123047
1523.772461	11959.057617
1522.758789	12065.098633
1521.745117	11902.324219
1520.731445	11823.436523
1519.716797	11971.337891
1518.702148	11781.576172
1517.687500	11798.846680
1516.672852	11688.020508
1515.657227	11757.019531
1514.642578	11961.410156
1513.626953	12003.243164
1512.610352	11936.766602
1511.594727	11924.452148
1510.579102	11766.991211
1509.562500	11781.771484
1508.545898	11708.016602
1507.529297	11781.808594
1506.511719	11641.712891
1505.494141	11744.979492
1504.477539	11899.801758
1503.458984	11772.049805
1502.441406	11912.064453
1501.423828	11617.382813
1500.405273	11784.375977
1499.386719	11946.390625
1498.368164	11730.412109
1497.348633	11585.675781
1496.330078	11789.331055
1495.310547	11713.312500
1494.291016	11902.143555
1493.271484	11713.361328
1492.250977	11791.817383
1491.231445	11578.630859
1490.210938	11691.380859
1489.190430	11605.674805
1488.168945	11772.250000
1487.148438	11676.767578
1486.126953	11777.162109
1485.105469	11564.239258
1484.083984	11574.077148
1483.061523	11556.999023
1482.040039	11645.102539
1481.017578	11720.942383
1479.995117	11581.596680
1478.971680	11632.972656
1477.949219	11647.667969
1476.925781	11740.544922
1475.902344	11779.639648
1474.878906	11567.151367
1473.855469	11684.405273
1472.831055	11743.015625
1471.806641	11628.300781
1470.782227	11747.907227
1469.757813	11811.345703
1468.733398	11623.504883
1467.708008	11650.360352
1466.682617	11679.641602
1465.657227	11662.591797
1464.631836	11504.182617
1463.605469	11852.698242
1462.579102	11918.455078
1461.552734	11850.214844
1460.526367	11945.167969
1459.500000	11774.687500
1458.472656	11820.929688
1457.445313	11762.499023
1456.417969	12049.618164
1455.390625	11974.132813
1454.362305	11854.898438
1453.334961	12042.114258
1452.306641	11973.970703
1451.277344	11876.684570
1450.249023	12041.905273
1449.219727	11922.776367
1448.191406	11998.036133
1447.162109	11806.102539
1446.131836	11708.949219
1445.102539	11859.463867
1444.072266	11978.361328
1443.041992	11973.446289
1442.011719	12021.909180
1440.981445	11936.936523
1439.950195	12024.189453
1438.918945	11965.921875
1437.887695	12002.222656
1436.856445	11982.761719
1435.825195	11735.528320
1434.792969	11878.450195
1433.760742	11825.115234
1432.728516	11880.777344
1431.696289	11561.131836
1430.663086	11757.223633
1429.629883	11805.602539
1428.596680	11817.665039
1427.563477	11616.834961
1426.530273	11619.255859
1425.496094	11457.240234
1424.461914	11616.839844
1423.427734	11715.943359
1422.393555	11522.590820
1421.358398	11459.789063
1420.323242	11554.030273
1419.288086	11445.359375
1418.252930	11587.855469
1417.217773	11619.241211
1416.181641	11505.794922
1415.145508	11638.535156
1414.109375	11590.271484
1413.073242	11580.622070
1412.036133	11402.161133
1411.000000	11358.797852
1409.962891	11363.664063
1408.924805	11301.043945
1407.887695	11354.110352
1406.849609	11522.791992
1405.812500	11339.745117
1404.773438	11676.925781
1403.735352	11383.171875
1402.697266	11467.455078
1401.658203	11311.041992
1400.619141	11518.014648
1399.580078	11325.571289
1398.540039	11219.791016
1397.500977	11388.177734
1396.460938	11409.843750
1395.420898	11443.517578
1394.380859	11318.573242
1393.339844	11309.003906
1392.298828	11239.386719
1391.257813	11253.852539
1390.216797	11241.900391
1389.175781	11385.990234
1388.133789	11354.812500
1387.091797	11410.032227
1386.049805	11292.494141
1385.007813	11376.486328
1383.964844	11381.304688
1382.922852	11249.458984
1381.879883	11369.361328
1380.835938	11484.418945
1379.792969	11340.651367
1378.749023	11347.864258
1377.706055	11110.775391
1376.661133	11163.529297
1375.617188	11379.057617
1374.573242	11199.554688
1373.528320	11493.956055
1372.483398	11340.821289
1371.438477	11192.533203
1370.392578	11412.609375
1369.347656	11195.026367
1368.301758	11197.465820
1367.255859	11209.464844
1366.208984	11116.316406
1365.163086	11314.672852
1364.116211	11254.979492
1363.069336	11288.446289
1362.022461	11252.657227
1360.974609	11035.465820
1359.927734	11164.416992
1358.879883	11164.465820
1357.832031	11298.106445
1356.783203	10961.830078
1355.735352	11059.686523
1354.686523	11195.647461
1353.637695	11193.301758
1352.588867	11069.419922
1351.539063	11221.968750
1350.490234	11150.537109
1349.440430	11029.120117
1348.390625	11257.774414
1347.339844	11093.534180
1346.290039	10922.222656
1345.239258	10969.904297
1344.188477	10946.192383
1343.137695	11169.862305
1342.085938	11017.700195
1341.034180	10901.263672
1339.982422	11096.276367
1338.930664	11006.013672
1337.878906	11139.141602
1336.826172	11056.033203
1335.773438	11096.464844
1334.720703	11034.769531
1333.667969	11065.690430
1332.614258	11063.367188
1331.561523	11018.327148
1330.507813	11068.210938
1329.453125	10947.280273
1328.399414	10909.406250
1327.344727	10935.567383
1326.290039	11030.463867
1325.235352	11130.060547
1324.180664	11059.002930
1323.125000	10829.242188
1322.070313	11101.725586
1321.014648	10983.352539
1319.958008	11106.526367
1318.902344	11203.610352
1317.845703	10974.056641
1316.789063	11108.983398
1315.732422	11052.236328
1314.675781	10957.669922
1313.618164	10846.589844
1312.560547	10969.606445
1311.502930	10974.387695
1310.445313	11177.669922
1309.386719	10972.128906
1308.329102	11149.340820
1307.270508	11111.567383
1306.210938	11087.976563
1305.152344	11038.426758
1304.092773	11147.027344
1303.033203	11038.493164
1301.973633	11125.814453
1300.914063	11109.317383
1299.853516	11026.796875
1298.792969	11234.303711
1297.732422	11069.289063
1296.671875	11213.068359
1295.611328	11279.032227
1294.549805	11008.103516
1293.488281	11048.173828
1292.426758	10876.304688
1291.364258	10984.655273
1290.302734	10991.750977
1289.240234	10860.003906
1288.177734	10937.702148
1287.114258	10963.618164
1286.051758	10895.454102
1284.988281	10869.640625
1283.924805	10916.708008
1282.861328	10928.501953
1281.796875	10601.930664
1280.732422	10825.214844
1279.667969	10876.946289
1278.603516	10837.075195
1277.539063	10954.516602
1276.473633	10745.642578
1275.408203	10799.691406
1274.342773	10698.864258
1273.277344	10736.477539
1272.210938	10677.918945
1271.145508	10701.450195
1270.079102	10757.791016
1269.011719	10706.293945
1267.945313	10736.832031
1266.877930	10746.271484
1265.810547	10683.095703
1264.743164	10516.908203
1263.674805	10610.671875
1262.607422	10711.416992
1261.539063	10601.493164
1260.470703	10678.797852
1259.401367	10720.980469
1258.333008	10618.137695
1257.263672	10982.999023
1256.194336	10711.821289
1255.125000	10597.357422
1254.054688	10576.414063
1252.985352	10772.755859
1251.915039	10389.730469
1250.843750	10529.979492
1249.773438	10509.064453
1248.702148	10509.166992
1247.630859	10576.949219
1246.559570	10619.036133
1245.488281	10488.472656
1244.416016	10434.932617
1243.343750	10388.409180
1242.271484	10449.147461
1241.199219	10607.754883
1240.125977	10440.042969
1239.053711	10600.913086
1237.980469	10517.129883
1236.906250	10489.274414
1235.833008	10447.459961
1234.758789	10452.220703
1233.684570	10475.596680
1232.610352	10249.984375
1231.536133	10461.831055
1230.460938	10652.652344
1229.385742	10478.303711
1228.310547	10745.760742
1227.235352	10464.541016
1226.159180	10369.353516
1225.083008	10704.041016
1224.006836	10429.975586
1222.930664	10395.238281
1221.853516	10290.855469
1220.777344	10397.768555
1219.700195	10409.476563
1218.622070	10428.139648
1217.544922	10444.473633
1216.466797	10555.898438
1215.388672	10382.041016
1214.310547	10326.500000
1213.232422	10391.516602
1212.153320	10238.660156
1211.074219	10528.414063
1209.995117	10498.367188
1208.916016	10424.327148
1207.835938	10475.356445
1206.755859	10373.571289
1205.675781	10304.232422
1204.595703	10352.938477
1203.514648	10161.014648
1202.434570	10367.014648
1201.353516	10302.357422
1200.271484	10394.947266
1199.190430	10383.476563
1198.108398	10328.099609
1197.026367	10381.341797
1195.944336	10402.219727
1194.862305	10501.613281
1193.779297	10376.983398
1192.696289	10351.673828
1191.613281	10234.051758
1190.530273	10607.996094
1189.446289	10171.988281
1188.362305	10349.722656
1187.278320	10259.871094
1186.194336	10050.166016
1185.109375	10239.334961
1184.024414	10191.045898
1182.939453	10304.066406
1181.854492	10435.465820
1180.768555	10179.879883
1179.683594	10205.327148
1178.597656	10405.724609
1177.510742	10279.201172
1176.424805	10125.116211
1175.337891	10175.856445
1174.250977	10242.674805
1173.164063	10153.085938
1172.077148	10022.149414
1170.989258	10247.565430
1169.901367	10040.822266
1168.813477	10098.403320
1167.724609	10192.713867
1166.636719	9933.290039
1165.547852	10043.666992
1164.458984	9986.408203
1163.369141	10092.134766
1162.280273	10220.761719
1161.190430	10032.727539
1160.100586	10009.922852
1159.010742	10136.189453
1157.919922	9952.877930
1156.829102	10168.498047
1155.738281	10056.301758
1154.647461	10049.551758
1153.555664	10026.768555
1152.464844	10100.185547
1151.373047	10173.571289
1150.280273	10194.269531
1149.188477	9970.055664
1148.095703	10004.517578
1147.002930	10144.203125
1145.910156	10004.773438
1144.817383	10201.568359
1143.723633	9847.269531
1142.629883	10178.875977
1141.536133	9991.563477
1140.441406	10030.532227
1139.347656	9950.696289
1138.252930	10147.242188
1137.158203	10087.964844
1136.062500	10149.704102
1134.967773	10044.801758
1133.872070	10017.528320
1132.776367	10120.305664
1131.679688	10020.037109
1130.583984	10286.958008
1129.487305	10291.571289
1128.390625	10261.990234
1127.292969	10252.931641
1126.196289	10312.228516
1125.098633	10298.605469
1124.000977	10080.016602
1122.903320	9941.214844
1121.804688	10041.500977
1120.706055	10080.291992
1119.607422	9939.302734
1118.508789	10023.596680
1117.409180	9862.208008
1116.310547	9994.235352
1115.210938	10071.639648
1114.110352	9885.339844
1113.010742	10114.991211
1111.910156	9812.887695
1110.809570	9942.506836
1109.708984	9754.122070
1108.607422	9783.791016
1107.506836	9877.007813
1106.405273	9840.818359
1105.303711	9825.065430
1104.201172	9888.718750
1103.098633	9827.598633
1101.996094	9791.448242
1100.893555	9882.269531
1099.791016	9816.655273
1098.687500	9830.382813
1097.583984	9875.821289
1096.480469	9916.709961
1095.376953	9848.876953
1094.272461	10027.863281
1093.167969	9717.824219
1092.063477	9831.127930
1090.958008	9799.572266
1089.853516	9811.009766
1088.748047	9508.069336
1087.642578	9883.614258
1086.536133	9881.459961
1085.430664	9678.148438
1084.324219	9947.201172
1083.217773	9739.444336
1082.110352	9635.676758
1081.003906	9816.490234
1079.896484	9773.708984
1078.789063	9791.890625
1077.680664	9848.428711
1076.573242	9855.302734
1075.464844	9780.966797
1074.356445	9783.340820
1073.247070	9772.183594
1072.138672	9756.522461
1071.029297	9702.552734
1069.919922	9716.205078
1068.809570	9826.720703
1067.700195	9865.113281
1066.589844	9637.774414
1065.479492	9977.867188
1064.368164	9831.630859
1063.257813	9586.442383
1062.146484	9840.827148
1061.035156	9863.415039
1059.922852	9771.300781
1058.811523	9829.867188
1057.699219	9872.670898
1056.586914	9699.707031
1055.473633	9803.185547
1054.361328	9690.963867
1053.248047	9657.396484
1052.134766	9756.322266
1051.021484	9747.448242
1049.907227	9691.444336
1048.792969	9761.124023
1047.678711	9758.982422
1046.564453	9703.009766
1045.449219	9882.519531
1044.333984	9705.476563
1043.218750	9822.143555
1042.103516	9649.671875
1040.987305	9829.032227
1039.871094	9649.913086
1038.754883	9773.205078
1037.638672	9712.842773
1036.521484	9753.239258
1035.404297	9724.238281
1034.287109	9876.490234
1033.169922	9628.243164
1032.051758	9668.619141
1030.933594	9682.144531
1029.815430	9691.191406
1028.697266	9684.588867
1027.578125	9559.554688
1026.458984	9702.666016
1025.339844	9600.016602
1024.220703	9689.459961
1023.100586	9801.188477
1021.980469	9687.422852
1020.860352	9823.649414
1019.740234	9765.705078
1018.619141	9573.947266
1017.498047	9587.447266
1016.376953	9652.222656
1015.255859	9458.383789
1014.133789	9327.034180
1013.011719	9607.956055
1011.889648	9605.834961
1010.767578	9445.583008
1009.644531	9519.206055
1008.521484	9574.985352
1007.398438	9528.356445
1006.274414	9688.693359
1005.151367	9622.035156
1004.027344	9715.551758
1002.902344	9655.586914
1001.778320	9726.820313
1000.653320	9620.198242
999.528320	9726.962891
998.403320	9558.176758
997.278320	9618.258789
996.152344	9465.115234
995.026367	9454.138672
993.900391	9585.236328
992.773438	9485.462891
991.646484	9523.301758
990.519531	9556.686523
989.392578	9448.111328
988.265625	9412.757813
987.137695	9477.178711
986.009766	9614.710938
984.881836	9422.011719
983.752930	9380.044922
982.624023	9466.561523
981.495117	9612.829102
980.366211	9535.422852
979.236328	9420.420898
978.106445	9557.746094
976.976563	9537.925781
975.846680	9365.486328
974.715820	9493.883789
973.585938	9467.455078
972.454102	9507.351563
971.323242	9379.268555
970.191406	9483.241211
969.060547	9394.981445
967.927734	9527.614258
966.795898	9362.100586
965.663086	9432.868164
964.530273	9499.189453
963.397461	9457.358398
962.264648	9430.987305
961.130859	9237.001953
959.997070	9462.071289
958.863281	9473.193359
957.729492	9376.306641
956.594727	9435.920898
955.459961	9358.912109
954.325195	9319.382813
953.189453	9458.244141
952.053711	9583.833008
950.917969	9368.183594
949.782227	9517.942383
948.646484	9509.219727
947.509766	9485.101563
946.373047	9403.814453
945.235352	9318.166016
944.098633	9612.847656
942.960938	9432.685547
941.823242	9289.957031
940.685547	9446.049805
939.546875	9474.688477
938.408203	9545.033203
937.269531	9448.503906
936.129883	9503.458008
934.991211	9521.083008
933.851563	9380.745117
932.711914	9343.555664
931.571289	9676.969727
930.431641	9543.265625
929.291016	9554.283203
928.149414	9659.523438
927.008789	9442.656250
925.867188	9523.778320
924.725586	9405.583008
923.583984	9491.053711
922.441406	9526.140625
921.299805	9537.138672
920.157227	9467.176758
919.013672	9535.054688
917.871094	9581.032227
916.727539	9408.341797
915.583984	9605.156250
914.439453	9552.737305
913.295898	9467.566406
912.151367	9450.152344
911.006836	9472.057617
909.861328	9406.611328
908.716797	9347.742188
907.571289	9496.240234
906.424805	9350.093750
905.279297	9422.168945
904.132813	9502.934570
902.986328	9267.478516
901.839844	9343.880859
900.692383	9228.443359
899.545898	9368.012695
898.398438	9294.013672
897.250000	9204.799805
896.102539	9477.115234
894.954102	9383.543945
893.805664	9257.365234
892.656250	9610.000000
891.507813	9420.729492
890.358398	9568.700195
889.208984	9440.414063
888.058594	9281.746094
886.908203	9284.004883
885.758789	9151.521484
884.607422	9331.972656
883.457031	9084.405273
882.305664	9104.077148
881.154297	9247.502930
880.002930	9139.050781
878.850586	9249.848633
877.698242	9495.123047
876.545898	9228.325195
875.393555	9122.140625
874.240234	9304.394531
873.086914	9157.049805
871.933594	9146.315430
870.780273	9241.761719
869.625977	9246.176758
868.471680	9155.288086
867.317383	9023.296875
866.162109	9146.826172
865.007813	9086.322266
863.852539	9090.762695
862.696289	9240.152344
861.541016	9134.243164
860.384766	9300.853516
859.228516	9117.144531
858.072266	9128.053711
856.915039	9164.889648
855.757813	9056.952148
854.600586	9182.346680
853.442383	9165.154297
852.285156	9273.194336
851.126953	9210.656250
849.968750	9154.621094
848.809570	9126.659180
847.650391	9070.666016
846.491211	9359.757813
845.332031	9217.490234
844.171875	9042.952148
843.012695	9075.386719
841.851563	9165.983398
840.691406	9170.369141
839.530273	8998.150391
838.369141	8959.506836
837.208008	9060.807617
836.046875	9015.709961
834.884766	8974.935547
833.722656	9086.916992
832.560547	9031.087891
831.397461	8968.832031
830.234375	8996.895508
829.071289	8954.017578
827.908203	9042.237305
826.744141	9083.152344
825.580078	9020.951172
824.416016	8973.809570
823.251953	8963.184570
822.086914	8896.758789
820.921875	9087.869141
819.756836	9002.134766
818.590820	8944.322266
817.425781	9013.056641
816.259766	9062.463867
815.092773	8918.935547
813.926758	8841.905273
812.759766	8957.731445
811.592773	9062.795898
810.424805	8917.253906
809.257813	8840.290039
808.089844	8919.620117
806.920898	8695.026367
805.752930	8731.560547
804.583984	8842.944336
803.415039	8849.486328
802.246094	8738.429688
801.076172	8734.302734
799.906250	8651.103516
798.736328	8807.245117
797.566406	8888.549805
796.395508	8816.048828
795.224609	8922.934570
794.053711	8841.917969
792.881836	8831.366211
791.710938	8776.010742
790.538086	8667.348633
789.366211	8731.488281
788.194336	8695.381836
787.021484	8804.251953
785.848633	8866.182617
784.674805	8742.705078
783.500977	8591.587891
782.327148	8725.937500
781.153320	8681.359375
779.979492	8609.125977
778.804688	8643.343750
777.629883	8694.568359
776.454102	8728.749023
775.279297	8641.679688
774.103516	8748.154297
772.927734	8614.347656
771.750977	8746.285156
770.575195	8778.286133
769.398438	8708.296875
768.220703	8810.383789
767.043945	8901.805664
765.866211	8778.757813
764.688477	8736.422852
763.510742	8736.546875
762.332031	8569.066406
761.153320	8664.676758
759.974609	8741.158203
758.794922	8775.201172
757.616211	8796.509766
756.436523	8591.057617
755.255859	8663.246094
754.076172	8745.990234
752.895508	8750.341797
751.714844	8629.774414
750.533203	8585.464844
749.352539	8896.703125
748.170898	8575.185547
746.988281	8721.291992
745.806641	8721.409180
744.624023	8658.095703
743.441406	8753.348633
742.258789	8609.749023
741.075195	8842.302734
739.891602	8610.027344
738.708008	8432.767578
737.523438	8660.977539
736.339844	8578.776367
735.155273	8524.048828
733.969727	8484.114258
732.785156	8501.154297
731.599609	8589.890625
730.414063	8684.911133
729.227539	8594.381836
728.041992	8522.861328
726.855469	8651.541992
725.667969	8504.203125
724.481445	8641.252930
723.293945	8675.064453
722.106445	8403.618164
720.918945	8582.686523
719.730469	8483.924805
718.541992	8675.513672
717.353516	8614.631836
716.164063	8410.792969
714.975586	8417.269531
713.786133	8549.846680
712.595703	8375.579102
711.406250	8527.010742
710.215820	8432.637695
709.025391	8562.987305
707.833984	8613.501953
706.642578	8340.771484
705.451172	8466.852539
704.259766	8393.578125
703.068359	8523.783203
701.875977	8335.198242
700.683594	8303.930664
699.490234	8283.156250
698.297852	8455.173828
697.104492	8629.206055
695.910156	8530.873047
694.716797	8537.286133
693.522461	8508.104492
692.328125	8305.212891
691.132813	8500.001953
689.938477	8382.980469
688.743164	8473.081055
687.547852	8558.956055
686.351563	8590.435547
685.155273	8504.849609
683.958984	8500.800781
682.762695	8467.504883
681.565430	8413.335938
680.368164	8409.308594
679.170898	8365.615234
677.973633	8405.432617
676.775391	8476.533203
675.577148	8585.153320
674.378906	8537.285156
673.179688	8458.159180
671.980469	8525.009766
670.781250	8570.984375
669.581055	8585.678711
668.381836	8558.697266
667.181641	8631.708984
665.980469	8625.552734
664.780273	8463.250000
663.579102	8744.380859
662.377930	8663.284180
661.175781	8659.205078
659.973633	8692.567383
658.771484	8690.560547
657.569336	8701.029297
656.367188	8769.693359
655.164063	8736.496094
653.960938	8578.655273
652.756836	8641.066406
651.552734	8653.607422
650.348633	8707.666992
649.144531	8686.973633
647.939453	8797.031250
646.735352	8921.560547
645.529297	8662.286133
644.324219	8780.566406
643.118164	8697.676758
641.912109	8737.125000
640.706055	8768.263672
639.499023	8716.510742
638.292969	8714.496094
637.084961	8617.218750
635.877930	8594.521484
634.669922	8679.473633
633.461914	8660.911133
632.253906	8708.565430
631.044922	8671.385742
629.836914	8586.657227
628.626953	8586.739258
627.417969	8613.692383
626.208008	8460.834961
624.998047	8427.885742
623.788086	8558.139648
622.577148	8622.246094
621.366211	8506.691406
620.155273	8409.767578
618.944336	8496.563477
617.732422	8455.394531
616.520508	8356.485352
615.308594	8558.722656
614.095703	8459.833984
612.882813	8499.103516
611.669922	8507.440430
610.457031	8575.525391
609.243164	8474.662109
608.029297	8421.212891
606.815430	8495.445313
605.600586	8557.292969
604.385742	8425.654297
603.170898	8217.945313
601.955078	8370.324219
600.740234	8454.762695
599.524414	8339.716797
598.307617	8383.009766
597.091797	8379.012695
595.875000	8362.687500
594.658203	8414.160156
593.440430	8184.243164
592.222656	8239.838867
591.004883	8270.774414
589.787109	8451.515625
588.568359	8108.948242
587.349609	8185.021484
586.130859	8156.462402
584.912109	8234.539063
583.692383	8138.331543
582.472656	8253.265625
581.251953	8142.754883
580.032227	8280.166992
578.811523	8429.803711
577.589844	8270.185547
576.369141	8212.996094
575.147461	8192.671875
573.925781	8174.402832
572.703125	8131.593262
571.481445	8297.415039
570.258789	8336.384766
569.035156	8250.636719
567.812500	8234.416992
566.588867	8353.062500
565.365234	8251.025391
564.140625	8306.297852
562.916992	8437.093750
561.692383	8375.935547
560.466797	8369.910156
559.242188	8310.835938
558.016602	8378.267578
556.791016	8353.888672
555.564453	8457.980469
554.337891	8378.552734
553.111328	8346.036133
551.884766	8303.347656
550.657227	8309.569336
549.429688	8256.723633
548.202148	8409.559570
546.974609	8430.000977
545.746094	8385.303711
544.517578	8310.105469
543.288086	8458.716797
542.058594	8475.057617
540.829102	8391.755859
539.599609	8389.807617
538.370117	8359.406250
537.139648	8448.904297
535.909180	8499.761719
534.677734	8367.802734
533.446289	8412.563477
532.214844	8282.715820
530.983398	8364.006836
529.750977	8382.356445
528.519531	8487.928711
527.286133	8372.379883
526.053711	8463.710938
524.820313	8291.457031
523.586914	8378.709961
522.353516	8352.449219
521.119141	8500.421875
519.884766	8239.201172
518.650391	8451.927734
517.415039	8534.991211
516.179688	8409.547852
514.944336	8480.440430
513.708984	8448.125977
