#Wave		#Intensity
1585.210938	8194.776367
1584.209961	8254.719727
1583.208984	8290.465820
1582.208008	8236.319336
1581.206055	8197.171875
1580.204102	8108.128418
1579.202148	8273.618164
1578.200195	8157.154785
1577.198242	8297.625000
1576.195313	8173.724121
1575.192383	8039.902344
1574.189453	8257.575195
1573.186523	8305.704102
1572.182617	8254.154297
1571.178711	8130.389648
1570.174805	8171.042480
1569.170898	8241.557617
1568.166992	8085.508789
1567.162109	8337.699219
1566.158203	8243.903320
1565.153320	8073.023438
1564.147461	8238.001953
1563.142578	8340.741211
1562.136719	8132.652344
1561.130859	8265.200195
1560.125000	8347.987305
1559.119141	8219.537109
1558.113281	8307.267578
1557.106445	8399.928711
1556.099609	8450.336914
1555.092773	8490.792969
1554.084961	8498.962891
1553.078125	8385.528320
1552.070313	8552.510742
1551.062500	8486.243164
1550.054688	8573.770508
1549.045898	8507.525391
1548.038086	8518.159180
1547.029297	8357.766602
1546.020508	8212.308594
1545.011719	8227.951172
1544.001953	8298.082031
1542.992188	8157.678711
1541.982422	8200.557617
1540.972656	8127.070313
1539.962891	8140.237793
1538.952148	8064.317871
1537.942383	8107.179688
1536.931641	7996.669434
1535.919922	7955.446777
1534.909180	7971.106445
1533.897461	8070.804688
1532.886719	7715.723145
1531.874023	8027.928711
1530.862305	7949.685059
1529.850586	7985.086914
1528.837891	8045.167480
1527.825195	8050.908203
1526.812500	7975.191406
1525.799805	8114.206055
1524.786133	8240.826172
1523.772461	8009.707031
1522.758789	8067.239746
1521.745117	8112.418945
1520.731445	8081.155762
1519.716797	8178.072754
1518.702148	8107.380371
1517.687500	8076.136719
1516.672852	8170.530273
1515.657227	8038.313965
1514.642578	8179.457520
1513.626953	8295.924805
1512.610352	8232.676758
1511.594727	8235.893555
1510.579102	8135.780762
1509.562500	8134.095703
1508.545898	8174.216797
1507.529297	8199.568359
1506.511719	8136.416992
1505.494141	8122.443359
1504.477539	8250.988281
1503.458984	8151.014648
1502.441406	8296.691406
1501.423828	8292.517578
1500.405273	8352.176758
1499.386719	8158.989746
1498.368164	8181.839844
1497.348633	8300.369141
1496.330078	8190.714844
1495.310547	8203.733398
1494.291016	8229.005859
1493.271484	8254.266602
1492.250977	8220.693359
1491.231445	8304.757813
1490.210938	8305.486328
1489.190430	8247.426758
1488.168945	8314.289063
1487.148438	8173.002930
1486.126953	8176.204590
1485.105469	8350.726563
1484.083984	8348.996094
1483.061523	8491.605469
1482.040039	8264.818359
1481.017578	8549.220703
1479.995117	8510.774414
1478.971680	8555.453125
1477.949219	8837.172852
1476.925781	8796.246094
1475.902344	8850.608398
1474.878906	8848.773438
1473.855469	8893.333984
1472.831055	8984.261719
1471.806641	8962.871094
1470.782227	9102.553711
1469.757813	9164.101563
1468.733398	9437.847656
1467.708008	9379.795898
1466.682617	9482.698242
1465.657227	9680.633789
1464.631836	9851.674805
1463.605469	10202.969727
1462.579102	10059.546875
1461.552734	10595.772461
1460.526367	10440.149414
1459.500000	10623.027344
1458.472656	10650.034180
1457.445313	10852.261719
1456.417969	10604.248047
1455.390625	10502.302734
1454.362305	10461.206055
1453.334961	10276.651367
1452.306641	10033.822266
1451.277344	10014.723633
1450.249023	9745.316406
1449.219727	9811.325195
1448.191406	9435.183594
1447.162109	9627.523438
1446.131836	9479.829102
1445.102539	9397.745117
1444.072266	9296.276367
1443.041992	9165.728516
1442.011719	9265.725586
1440.981445	9217.711914
1439.950195	9247.324219
1438.918945	9049.000977
1437.887695	9049.544922
1436.856445	9134.916992
1435.825195	9133.018555
1434.792969	9034.211914
1433.760742	8935.446289
1432.728516	8829.456055
1431.696289	8849.411133
1430.663086	8787.053711
1429.629883	8688.419922
1428.596680	8713.229492
1427.563477	8559.009766
1426.530273	8581.416016
1425.496094	8603.812500
1424.461914	8611.693359
1423.427734	8648.576172
1422.393555	8414.777344
1421.358398	8437.188477
1420.323242	8459.588867
1419.288086	8467.488281
1418.252930	8320.847656
1417.217773	8500.175781
1416.181641	8549.092773
1415.145508	8496.636719
1414.109375	8456.265625
1413.073242	8645.063477
1412.036133	8696.318359
1411.000000	8725.851563
1409.962891	8680.643555
1408.924805	8746.318359
1407.887695	8848.109375
1406.849609	9159.451172
1405.812500	9244.252930
1404.773438	9463.872070
1403.735352	9623.209961
1402.697266	9585.097656
1401.658203	9968.156250
1400.619141	9939.611328
1399.580078	9944.755859
1398.540039	10019.645508
1397.500977	10229.161133
1396.460938	10152.500977
1395.420898	9861.952148
1394.380859	10107.414063
1393.339844	9735.305664
1392.298828	9846.172852
1391.257813	9812.898438
1390.216797	9645.175781
1389.175781	9635.960938
1388.133789	9561.947266
1387.091797	9773.514648
1386.049805	9857.841797
1385.007813	10050.069336
1383.964844	10215.835938
1382.922852	10314.401367
1381.879883	10767.693359
1380.835938	10868.497070
1379.792969	11074.686523
1378.749023	11081.955078
1377.706055	11482.012695
1376.661133	11486.797852
1375.617188	11580.160156
1374.573242	11549.017578
1373.528320	11761.980469
1372.483398	11481.983398
1371.438477	11345.625977
1370.392578	11405.434570
1369.347656	11293.060547
1368.301758	11238.106445
1367.255859	10984.797852
1366.208984	10710.087891
1365.163086	10354.263672
1364.116211	10380.760742
1363.069336	10385.752930
1362.022461	10335.827148
1360.974609	10350.374023
1359.927734	10257.517578
1358.879883	10233.895508
1357.832031	10277.078125
1356.783203	10434.726563
1355.735352	10253.698242
1354.686523	10439.893555
1353.637695	10425.788086
1352.588867	10800.131836
1351.539063	10995.623047
1350.490234	11276.787109
1349.440430	11455.424805
1348.390625	11543.504883
1347.339844	12024.343750
1346.290039	12369.316406
1345.239258	12578.505859
1344.188477	12806.639648
1343.137695	13284.429688
1342.085938	13360.120117
1341.034180	13680.669922
1339.982422	13960.674805
1338.930664	14019.537109
1337.878906	14489.437500
1336.826172	14248.836914
1335.773438	14518.982422
1334.720703	14477.941406
1333.667969	14370.440430
1332.614258	14177.535156
1331.561523	13984.708984
1330.507813	13739.765625
1329.453125	13845.997070
1328.399414	13705.534180
1327.344727	13311.420898
1326.290039	13088.157227
1325.235352	12924.238281
1324.180664	12558.969727
1323.125000	12463.934570
1322.070313	12295.509766
1321.014648	11999.277344
1319.958008	11880.740234
1318.902344	11695.972656
1317.845703	11527.847656
1316.789063	11310.104492
1315.732422	11094.817383
1314.675781	11139.785156
1313.618164	10912.799805
1312.560547	10740.285156
1311.502930	10553.659180
1310.445313	10570.342773
1309.386719	10216.082031
1308.329102	10247.000000
1307.270508	10218.863281
1306.210938	10096.291992
1305.152344	9940.721680
1304.092773	9660.127930
1303.033203	9584.942383
1301.973633	9580.562500
1300.914063	9472.403320
1299.853516	9427.958008
1298.792969	9296.297852
1297.732422	9249.550781
1296.671875	9176.899414
1295.611328	9094.853516
1294.549805	9071.733398
1293.488281	9039.201172
1292.426758	8799.469727
1291.364258	8851.758789
1290.302734	8951.098633
1289.240234	8956.267578
1288.177734	8839.093750
1287.114258	8865.453125
1286.051758	8668.388672
1284.988281	8664.206055
1283.924805	8817.522461
1282.861328	8728.700195
1281.796875	9048.766602
1280.732422	8743.804688
1279.667969	9059.033203
1278.603516	9202.708008
1277.539063	9219.542969
1276.473633	9424.149414
1275.408203	9457.356445
1274.342773	9399.045898
1273.277344	9519.035156
1272.210938	9439.626953
1271.145508	9526.729492
1270.079102	9545.810547
1269.011719	9743.008789
1267.945313	9424.604492
1266.877930	9417.922852
1265.810547	9273.048828
1264.743164	9144.627930
1263.674805	8955.387695
1262.607422	8983.919922
1261.539063	8745.646484
1260.470703	8692.317383
1259.401367	8786.384766
1258.333008	8639.515625
1257.263672	8614.300781
1256.194336	8439.475586
1255.125000	8465.732422
1254.054688	8557.408203
1252.985352	8436.439453
1251.915039	8579.469727
1250.843750	8295.073242
1249.773438	8487.102539
1248.702148	8517.980469
1247.630859	8481.164063
1246.559570	8365.028320
1245.488281	8426.237305
1244.416016	8356.808594
1243.343750	8445.974609
1242.271484	8325.280273
1241.199219	8167.341797
1240.125977	8226.194336
1239.053711	8282.691406
1237.980469	8425.350586
1236.906250	8288.483398
1235.833008	8312.332031
1234.758789	8399.022461
1233.684570	8548.514648
1232.610352	8344.254883
1231.536133	8307.582031
1230.460938	8363.960938
1229.385742	8231.956055
1228.310547	8376.671875
1227.235352	8307.478516
1226.159180	8435.848633
1225.083008	8294.644531
1224.006836	8348.626953
1222.930664	8397.940430
1221.853516	8126.803711
1220.777344	8343.286133
1219.700195	8292.766602
1218.622070	8010.222168
1217.544922	8275.308594
1216.466797	8301.375977
1215.388672	8141.913574
1214.310547	8188.863281
1213.232422	8309.967773
1212.153320	8322.097656
1211.074219	8218.373047
1209.995117	8334.757813
1208.916016	8196.333008
1207.835938	8370.559570
1206.755859	8324.785156
1205.675781	8209.594727
1204.595703	8108.335938
1203.514648	8254.667969
1202.434570	8262.154297
1201.353516	8269.636719
1200.271484	8256.306641
1199.190430	8217.555664
1198.108398	8111.798828
1197.026367	8123.925781
1195.944336	8161.457520
1194.862305	8078.874512
1193.779297	8000.944824
1192.696289	7853.790039
1191.613281	7817.486328
1190.530273	7958.881348
1189.446289	7781.836426
1188.362305	7810.153809
1187.278320	7822.315918
1186.194336	7804.499023
1185.109375	7747.502441
1184.024414	7748.145020
1182.939453	7594.410156
1181.854492	7613.512695
1180.768555	7515.146973
1179.683594	7499.717773
1178.597656	7576.380371
1177.510742	7487.290527
1176.424805	7561.620605
1175.337891	7548.493164
1174.250977	7629.677246
1173.164063	7595.842285
1172.077148	7582.713867
1170.989258	7581.083496
1169.901367	7446.158203
1168.813477	7580.121582
1167.724609	7525.655273
1166.636719	7501.068848
1165.547852	7554.564453
1164.458984	7539.164063
1163.369141	7679.845703
1162.280273	7652.950684
1161.190430	7575.592773
1160.100586	7479.917480
1159.010742	7586.089355
1157.919922	7522.550293
1156.829102	7461.330566
1155.738281	7537.643066
1154.647461	7531.435547
1153.555664	7445.052734
1152.464844	7548.800781
1151.373047	7487.638184
1150.280273	7609.645508
1149.188477	7553.072266
1148.095703	7658.993652
1147.002930	7584.130371
1145.910156	7575.631348
1144.817383	7429.925293
1143.723633	7624.945801
1142.629883	7653.015137
1141.536133	7751.917480
1140.441406	7620.005859
1139.347656	7611.505859
1138.252930	7646.402832
1137.158203	7640.183105
1136.062500	7697.886230
1134.967773	7689.374512
1133.872070	7477.776855
1132.776367	7647.264648
1131.679688	7545.250000
1130.583984	7700.965820
1129.487305	7667.380371
1128.390625	7695.353027
1127.292969	7732.428711
1126.196289	7680.628418
1125.098633	7594.680664
1124.000977	7636.307129
1122.903320	7677.914551
1121.804688	7653.485840
1120.706055	7599.479492
1119.607422	7647.892578
1118.508789	7498.359863
1117.409180	7410.303223
1116.310547	7540.587891
1115.210938	7607.156738
1114.110352	7662.331543
1113.010742	7569.767578
1111.910156	7568.124512
1110.809570	7600.554199
1109.708984	7537.585938
1108.607422	7399.715820
1107.506836	7604.683105
1106.405273	7580.335449
1105.303711	7508.347168
1104.201172	7472.686523
1103.098633	7532.300293
1101.996094	7460.367188
1100.893555	7336.321289
1099.791016	7228.195313
1098.687500	7444.169434
1097.583984	7351.924805
1096.480469	7422.808594
1095.376953	7253.610352
1094.272461	7331.275879
1093.167969	7417.961914
1092.063477	7377.872559
1090.958008	7303.860352
1089.853516	7223.093262
1088.748047	7183.070801
1087.642578	7251.601563
1086.536133	7329.145020
1085.430664	7323.026367
1084.324219	7099.979004
1083.217773	7243.019531
1082.110352	7431.171387
1081.003906	7330.188477
1079.896484	7213.444336
1078.789063	7146.410156
1077.680664	7214.809082
1076.573242	7170.364746
1075.464844	7349.259277
1074.356445	7307.059082
1073.247070	7070.966309
1072.138672	7373.749023
1071.029297	7327.061523
1069.919922	7426.858398
1068.809570	7321.605469
1067.700195	7315.500000
1066.589844	7349.928711
1065.479492	7429.368652
1064.368164	7407.485352
1063.257813	7311.350098
1062.146484	7258.003418
1061.035156	7452.108398
1059.922852	7367.268555
1058.811523	7298.204102
1057.699219	7332.571289
1056.586914	7488.281738
1055.473633	7345.086914
1054.361328	7433.333008
1053.248047	7391.277344
1052.134766	7382.920410
1051.021484	7302.729004
1049.907227	7332.549316
1048.792969	7351.136230
1047.678711	7318.115234
1046.564453	7365.854004
1045.449219	7393.389160
1044.333984	7367.104492
1043.218750	7356.520996
1042.103516	7363.869629
1040.987305	7321.922852
1039.871094	7456.954590
1038.754883	7444.118164
1037.638672	7386.506836
1036.521484	7490.093750
1035.404297	7452.638672
1034.287109	7426.386719
1033.169922	7384.486816
1032.051758	7485.743652
1030.933594	7647.329102
1029.815430	7571.872559
1028.697266	7552.325195
1027.578125	7577.477539
1026.458984	7732.195801
1025.339844	7464.694336
1024.220703	7492.080566
1023.100586	7689.132813
1021.980469	7687.438477
1020.860352	7754.925293
1019.740234	7675.125977
1018.619141	7776.043457
1017.498047	7580.305176
1016.376953	7556.336914
1015.255859	7704.024414
1014.133789	7764.728027
1013.011719	7785.296387
1011.889648	7770.211914
1010.767578	7882.083984
1009.644531	7924.877930
1008.521484	7820.721680
1007.398438	7718.836426
1006.274414	7899.601074
1005.151367	7857.810059
1004.027344	7784.897461
1002.902344	7671.988281
1001.778320	7683.631836
1000.653320	7761.953125
999.528320	7709.124023
998.403320	7731.858398
997.278320	7814.557617
996.152344	7626.279785
995.026367	7671.218750
993.900391	7698.378418
992.773438	7607.900391
991.646484	7521.899414
990.519531	7682.173828
989.392578	7607.282227
988.265625	7583.423340
987.137695	7526.320801
986.009766	7544.600098
984.881836	7549.575195
983.752930	7337.437500
982.624023	7486.424805
981.495117	7639.773926
980.366211	7576.088867
979.236328	7647.451660
978.106445	7431.098145
976.976563	7546.709473
975.846680	7385.771973
974.715820	7563.261719
973.585938	7603.590820
972.454102	7433.904297
971.323242	7518.442871
970.191406	7342.220703
969.060547	7508.474609
967.927734	7502.388672
966.795898	7564.753906
965.663086	7651.374023
964.530273	7724.712402
963.397461	7760.505859
962.264648	7822.755859
961.130859	7982.022949
959.997070	8041.989258
958.863281	8022.562012
957.729492	8062.654297
956.594727	8054.248047
955.459961	8043.641602
954.325195	8110.131836
953.189453	7824.247070
952.053711	7890.755371
950.917969	7708.500488
949.782227	7682.574707
948.646484	7377.235840
947.509766	7734.141602
946.373047	7501.499512
945.235352	7488.832520
944.098633	7399.232910
942.960938	7527.248047
941.823242	7426.691895
940.685547	7192.178223
939.546875	7335.525879
938.408203	7406.348145
937.269531	7395.913086
936.129883	7442.546387
934.991211	7491.352539
933.851563	7445.802246
932.711914	7527.484375
931.571289	7363.531738
930.431641	7539.465332
929.291016	7509.285156
928.149414	7415.568359
927.008789	7470.872070
925.867188	7534.912109
924.725586	7559.504883
923.583984	7384.850098
922.441406	7492.642578
921.299805	7447.196777
920.157227	7390.830566
919.013672	7362.926270
917.871094	7461.876465
916.727539	7359.627441
915.583984	7204.960449
914.439453	7240.498535
913.295898	7168.956055
912.151367	7217.592285
911.006836	7237.813965
909.861328	7316.980957
908.716797	7317.522461
907.571289	7246.039551
906.424805	7329.513672
905.279297	7338.776855
904.132813	7313.137695
902.986328	7328.940430
901.839844	7379.617188
900.692383	7284.236816
899.545898	7262.988281
898.398438	7363.752441
897.250000	7244.478516
896.102539	7382.219727
894.954102	7271.702637
893.805664	7413.728027
892.656250	7359.832520
891.507813	7364.704590
890.358398	7404.376953
889.208984	7261.354980
888.058594	7316.250977
886.908203	7338.515625
885.758789	7184.737305
884.607422	7180.947266
883.457031	7231.464844
882.305664	7132.106445
881.154297	7265.120117
880.002930	7252.629395
878.850586	7279.209473
877.698242	7182.097168
876.545898	7204.341309
875.393555	7181.029297
874.240234	7240.124023
873.086914	7244.995117
871.933594	7152.331543
870.780273	7211.391602
869.625977	7240.094238
868.471680	7158.322266
867.317383	7154.541504
866.162109	7220.039551
865.007813	7040.925781
863.852539	7238.419434
862.696289	7150.246582
861.541016	7265.432617
860.384766	7201.079102
859.228516	7143.240723
858.072266	7204.310547
856.915039	7284.801270
855.757813	7280.994141
854.600586	7203.746582
853.442383	7107.097656
852.285156	7109.808594
851.126953	7183.750977
849.968750	7044.008301
848.809570	7174.028320
847.650391	7193.976563
846.491211	7224.697754
845.332031	7190.720703
844.171875	7148.135254
843.012695	7191.775391
841.851563	7086.722656
840.691406	7106.659668
839.530273	7061.975586
838.369141	7170.189453
837.208008	7175.023438
836.046875	7011.979492
834.884766	7195.440430
833.722656	6993.742676
832.560547	7112.600098
831.397461	7072.282227
830.234375	6963.188477
829.071289	6957.310547
827.908203	7204.995605
826.744141	7145.355469
825.580078	7156.621094
824.416016	6985.355957
823.251953	7228.513184
822.086914	7119.553223
820.921875	7214.501953
819.756836	7139.919922
818.590820	7290.587402
817.425781	7085.209961
816.259766	7090.032227
815.092773	7180.589844
813.926758	7161.814453
812.759766	7095.912109
811.592773	7209.966797
810.424805	7107.676758
809.257813	7191.701172
808.089844	7230.735840
806.920898	7149.909180
805.752930	7212.469727
804.583984	7215.106934
803.415039	7091.565430
802.246094	7098.503906
801.076172	7056.273438
799.906250	7135.877930
798.736328	7006.054688
797.566406	7290.704102
796.395508	7069.069824
795.224609	7176.354004
794.053711	7317.743652
792.881836	7243.513184
791.710938	7429.630371
790.538086	7359.673828
789.366211	7426.244141
788.194336	7292.350586
787.021484	7294.951660
785.848633	7357.227051
784.674805	7406.688477
783.500977	7177.054688
782.327148	7249.961426
781.153320	7135.451660
779.979492	7108.277344
778.804688	7176.891602
777.629883	7049.707520
776.454102	7107.665527
775.279297	7165.596680
774.103516	7123.558105
772.927734	7113.427734
771.750977	7164.939453
770.575195	7042.178711
769.398438	7244.521484
768.220703	7117.549805
767.043945	7162.640625
765.866211	7099.435547
764.688477	7278.229492
763.510742	7208.659668
762.332031	7253.686035
761.153320	7235.058594
759.974609	7322.469727
758.794922	7301.713379
757.616211	7300.042969
756.436523	7262.347168
755.255859	7472.552734
754.076172	7606.406250
752.895508	7517.839844
751.714844	7706.668457
750.533203	7920.810547
749.352539	7859.742188
748.170898	8291.673828
746.988281	8353.233398
745.806641	8615.668945
744.624023	9108.443359
743.441406	9651.723633
742.258789	10399.748047
741.075195	11665.078125
739.891602	13263.583008
738.708008	15264.723633
737.523438	17197.380859
736.339844	19443.679688
735.155273	21315.398438
733.969727	22466.763672
732.785156	22830.767578
731.599609	22180.181641
730.414063	21241.027344
729.227539	19246.187500
728.041992	17022.539063
726.855469	14943.189453
725.667969	12866.899414
724.481445	11494.993164
723.293945	10660.643555
722.106445	9715.104492
720.918945	9174.087891
719.730469	8927.899414
718.541992	8553.500977
717.353516	8208.717773
716.164063	8105.902344
714.975586	7889.613770
713.786133	7650.305176
712.595703	7629.636230
711.406250	7533.348145
710.215820	7380.395996
709.025391	7330.404297
707.833984	7481.969238
706.642578	7501.237305
705.451172	7293.873535
704.259766	7344.643066
703.068359	7231.792480
701.875977	7261.582520
700.683594	7287.165527
699.490234	7293.872559
698.297852	7350.867188
697.104492	7420.404785
695.910156	7334.916992
694.716797	7540.536133
693.522461	7572.296875
692.328125	7585.205078
691.132813	7596.014160
689.938477	7527.318359
688.743164	7579.966309
687.547852	7622.134277
686.351563	7570.203125
685.155273	7639.524902
683.958984	7589.702148
682.762695	7554.526367
681.565430	7348.091797
680.368164	7413.222168
679.170898	7288.336426
677.973633	7234.474609
676.775391	7303.757813
675.577148	7256.175293
674.378906	7325.420898
673.179688	7304.963379
671.980469	7274.090820
670.781250	7247.400879
669.581055	7283.239746
668.381836	7221.140137
667.181641	7406.939453
665.980469	7296.942383
664.780273	7305.668945
663.579102	7416.384277
662.377930	7549.938965
661.175781	7429.605957
659.973633	7504.853516
658.771484	7525.996582
657.569336	7484.756348
656.367188	7647.239258
655.164063	7932.256836
653.960938	7828.620117
652.756836	7868.355469
651.552734	7843.694824
650.348633	7900.017578
649.144531	8037.267090
647.939453	8008.432129
646.735352	7865.497070
645.529297	7857.457031
644.324219	7868.084473
643.118164	8187.634766
641.912109	7974.310547
640.706055	7951.743652
639.499023	8109.442383
638.292969	7989.496582
637.084961	8147.112793
635.877930	8141.088379
634.669922	8300.666016
633.461914	8364.970703
632.253906	8466.488281
631.044922	8450.050781
629.836914	8812.078125
628.626953	8812.107422
627.417969	8652.967773
626.208008	8638.566406
624.998047	8719.214844
623.788086	8467.250000
622.577148	8502.463867
621.366211	8298.153320
620.155273	8257.012695
618.944336	8059.042969
617.732422	7999.405762
616.520508	7855.219727
615.308594	7717.286621
614.095703	7581.479004
612.882813	7594.153809
611.669922	7559.421387
610.457031	7341.325684
609.243164	7240.748047
608.029297	7272.022949
606.815430	7278.575195
605.600586	7099.856445
604.385742	7168.185547
603.170898	7283.807129
601.955078	7115.495605
600.740234	7050.091797
599.524414	7229.399414
598.307617	7110.551758
597.091797	7102.738770
595.875000	7156.570801
594.658203	7095.339355
593.440430	6945.824707
592.222656	6991.440430
591.004883	7043.193359
589.787109	7105.183594
588.568359	7054.292480
587.349609	7087.530762
586.130859	6995.648438
584.912109	6955.068359
583.692383	7070.303711
582.472656	7044.071289
581.251953	7210.456543
580.032227	7106.358398
578.811523	7221.450195
577.589844	7080.540039
576.369141	7097.322266
575.147461	7228.707520
573.925781	7317.062500
572.703125	7282.634766
571.481445	7356.618164
570.258789	7455.104492
569.035156	7510.614746
567.812500	7386.245117
566.588867	7437.658203
565.365234	7491.089844
564.140625	7481.182617
562.916992	7444.734863
561.692383	7485.877441
560.466797	7563.737793
559.242188	7427.312012
558.016602	7358.268555
556.791016	7501.367676
555.564453	7405.830566
554.337891	7416.343750
553.111328	7420.737305
551.884766	7533.122559
550.657227	7506.928711
549.429688	7444.085938
548.202148	7401.634277
546.974609	7513.917969
545.746094	7493.856445
544.517578	7634.553223
543.288086	7606.334961
542.058594	7519.147461
540.829102	7525.536133
539.599609	7613.237305
538.370117	7763.902344
537.139648	7697.077637
535.909180	7711.542480
534.677734	7622.418945
533.446289	7687.657227
532.214844	7533.616699
530.983398	7460.831543
529.750977	7440.837402
528.519531	7339.705566
527.286133	7398.847168
526.053711	7279.521484
524.820313	7279.858887
523.586914	7365.320313
522.353516	7602.714844
521.119141	7404.442871
519.884766	7453.357910
518.650391	7398.979980
517.415039	7340.578125
516.179688	7178.980957
514.944336	7209.689941
513.708984	7135.187012
