#Wave		#Intensity
1585.210938	8372.109375
1584.209961	8584.409180
1583.208984	8547.670898
1582.208008	8558.382813
1581.206055	8671.429688
1580.204102	8467.491211
1579.202148	8722.728516
1578.200195	8251.947266
1577.198242	8589.425781
1576.195313	8472.945313
1575.192383	8488.640625
1574.189453	8666.340820
1573.186523	8480.140625
1572.182617	8445.996094
1571.178711	8481.610352
1570.174805	8492.305664
1569.170898	8408.380859
1568.166992	8536.086914
1567.162109	8285.432617
1566.158203	8522.598633
1565.153320	8381.514648
1564.147461	8538.967773
1563.142578	8450.161133
1562.136719	8435.979492
1561.130859	8543.607422
1560.125000	8641.248047
1559.119141	8704.062500
1558.113281	8918.387695
1557.106445	8983.601563
1556.099609	9210.196289
1555.092773	9312.562500
1554.084961	9486.868164
1553.078125	9407.972656
1552.070313	9758.347656
1551.062500	9446.248047
1550.054688	9553.416992
1549.045898	9541.520508
1548.038086	9559.377930
1547.029297	9460.734375
1546.020508	9248.139648
1545.011719	9159.510742
1544.001953	9063.487305
1542.992188	8950.166992
1541.982422	8718.044922
1540.972656	8770.701172
1539.962891	8598.110352
1538.952148	8455.285156
1537.942383	8394.159180
1536.931641	8397.368164
1535.919922	8395.629883
1534.909180	8238.128906
1533.897461	8117.770996
1532.886719	8088.905273
1531.874023	8079.817383
1530.862305	8028.737305
1529.850586	8123.399414
1528.837891	8057.514160
1527.825195	8181.757324
1526.812500	8170.189941
1525.799805	8000.686035
1524.786133	8082.917969
1523.772461	8041.775391
1522.758789	8230.014648
1521.745117	8363.928711
1520.731445	8172.371094
1519.716797	8183.002441
1518.702148	8208.415039
1517.687500	8152.512695
1516.672852	8345.418945
1515.657227	8356.004883
1514.642578	8196.692383
1513.626953	8295.924805
1512.610352	8446.800781
1511.594727	8248.197266
1510.579102	8406.399414
1509.562500	8111.958984
1508.545898	8115.197266
1507.529297	8278.245117
1506.511719	8190.495605
1505.494141	8370.663086
1504.477539	8199.388672
1503.458984	8234.539063
1502.441406	8247.570313
1501.423828	8270.416992
1500.405273	8251.518555
1499.386719	8406.901367
1498.368164	8488.597656
1497.348633	8494.199219
1496.330078	8634.715820
1495.310547	8576.518555
1494.291016	8687.535156
1493.271484	8675.928711
1492.250977	8576.089844
1491.231445	8608.620117
1490.210938	8506.385742
1489.190430	8580.557617
1488.168945	8598.371094
1487.148438	8498.649414
1486.126953	8724.548828
1485.105469	8710.502930
1484.083984	8593.691406
1483.061523	8775.392578
1482.040039	8653.722656
1481.017578	8818.217773
1479.995117	8906.851563
1478.971680	8914.782227
1477.949219	9125.554688
1476.925781	9238.501953
1475.902344	9275.672852
1474.878906	9496.005859
1473.855469	9633.224609
1472.831055	9658.081055
1471.806641	9700.013672
1470.782227	10076.257813
1469.757813	10493.823242
1468.733398	10455.056641
1467.708008	10908.951172
1466.682617	11021.290039
1465.657227	11645.526367
1464.631836	11994.084961
1463.605469	12383.924805
1462.579102	13009.924805
1461.552734	13521.180664
1460.526367	13752.164063
1459.500000	14002.528320
1458.472656	14131.074219
1457.445313	13750.904297
1456.417969	13784.548828
1455.390625	13465.425781
1454.362305	13024.821289
1453.334961	12560.081055
1452.306641	12027.458008
1451.277344	11704.100586
1450.249023	11393.028320
1449.219727	11101.521484
1448.191406	10525.914063
1447.162109	10450.866211
1446.131836	10312.713867
1445.102539	10184.330078
1444.072266	10179.787109
1443.041992	10083.030273
1442.011719	9901.394531
1440.981445	9916.317383
1439.950195	9780.870117
1438.918945	9587.286133
1437.887695	9708.927734
1436.856445	9445.150391
1435.825195	9469.841797
1434.792969	9446.069336
1433.760742	9180.086914
1432.728516	9117.636719
1431.696289	9127.846680
1430.663086	8910.508789
1429.629883	8974.000000
1428.596680	8829.373047
1427.563477	8747.704102
1426.530273	8724.117188
1425.496094	8777.919922
1424.461914	8635.869141
1423.427734	8597.815430
1422.393555	8675.776367
1421.358398	8695.715820
1420.323242	8488.576172
1419.288086	8515.791992
1418.252930	8410.189453
1417.217773	8476.035156
1416.181641	8611.847656
1415.145508	8670.382813
1414.109375	8668.577148
1413.073242	8500.335938
1412.036133	8959.185547
1411.000000	9010.364258
1409.962891	9172.410156
1408.924805	9387.410156
1407.887695	9397.501953
1406.849609	9990.595703
1405.812500	10243.827148
1404.773438	10578.827148
1403.735352	10879.981445
1402.697266	11260.443359
1401.658203	11691.285156
1400.619141	11563.730469
1399.580078	12073.712891
1398.540039	12205.881836
1397.500977	11977.303711
1396.460938	12032.504883
1395.420898	11986.730469
1394.380859	11686.246094
1393.339844	11551.666016
1392.298828	11642.937500
1391.257813	11426.766602
1390.216797	11323.537109
1389.175781	11347.580078
1388.133789	11160.405273
1387.091797	11395.634766
1386.049805	11767.513672
1385.007813	12031.299805
1383.964844	12446.053711
1382.922852	13081.211914
1381.879883	13567.485352
1380.835938	13921.742188
1379.792969	14537.023438
1378.749023	15022.684570
1377.706055	15280.610352
1376.661133	15394.751953
1375.617188	15666.853516
1374.573242	15838.310547
1373.528320	15643.553711
1372.483398	15697.706055
1371.438477	15369.101563
1370.392578	15059.765625
1369.347656	14602.312500
1368.301758	14379.325195
1367.255859	13917.422852
1366.208984	13438.985352
1365.163086	13130.372070
1364.116211	12924.595703
1363.069336	12609.053711
1362.022461	12305.580078
1360.974609	12042.812500
1359.927734	12025.972656
1358.879883	11925.625977
1357.832031	12037.636719
1356.783203	11977.874023
1355.735352	12144.670898
1354.686523	12325.702148
1353.637695	12458.984375
1352.588867	12649.403320
1351.539063	12873.098633
1350.490234	13537.384766
1349.440430	14051.352539
1348.390625	14491.289063
1347.339844	15219.091797
1346.290039	16029.890625
1345.239258	16611.908203
1344.188477	17134.205078
1343.137695	17860.837891
1342.085938	18313.685547
1341.034180	18626.064453
1339.982422	19344.792969
1338.930664	19419.162109
1337.878906	19990.101563
1336.826172	19950.271484
1335.773438	20254.847656
1334.720703	20127.117188
1333.667969	20191.740234
1332.614258	19867.062500
1331.561523	19205.541016
1330.507813	19059.150391
1329.453125	18713.562500
1328.399414	18152.302734
1327.344727	17712.205078
1326.290039	17473.791016
1325.235352	16612.136719
1324.180664	16291.117188
1323.125000	16143.175781
1322.070313	15654.213867
1321.014648	15437.791016
1319.958008	15122.018555
1318.902344	14661.981445
1317.845703	14344.135742
1316.789063	13931.777344
1315.732422	13720.669922
1314.675781	13405.584961
1313.618164	13066.984375
1312.560547	12875.102539
1311.502930	12740.028320
1310.445313	12470.309570
1309.386719	11921.912109
1308.329102	11907.590820
1307.270508	11685.449219
1306.210938	11463.399414
1305.152344	11288.656250
1304.092773	10981.816406
1303.033203	10842.641602
1301.973633	10797.890625
1300.914063	10573.899414
1299.853516	10472.626953
1298.792969	10206.359375
1297.732422	10300.850586
1296.671875	10143.136719
1295.611328	10025.543945
1294.549805	10016.361328
1293.488281	9908.264648
1292.426758	9793.148438
1291.364258	9633.349609
1290.302734	9805.489258
1289.240234	9746.942383
1288.177734	9759.000000
1287.114258	9700.485352
1286.051758	9646.698242
1284.988281	9898.590820
1283.924805	9903.551758
1282.861328	10051.872070
1281.796875	10265.920898
1280.732422	10435.244141
1279.667969	10778.299805
1278.603516	11062.504883
1277.539063	11240.940430
1276.473633	11539.008789
1275.408203	11994.181641
1274.342773	11979.912109
1273.277344	12228.371094
1272.210938	12171.842773
1271.145508	12366.224609
1270.079102	12244.049805
1269.011719	12025.831055
1267.945313	11791.300781
1266.877930	11430.359375
1265.810547	11203.080078
1264.743164	10882.224609
1263.674805	10509.997070
1262.607422	10088.769531
1261.539063	9918.129883
1260.470703	10025.997070
1259.401367	9780.583984
1258.333008	9633.504883
1257.263672	9502.854492
1256.194336	9241.341797
1255.125000	9162.250000
1254.054688	9087.864258
1252.985352	8913.047852
1251.915039	8976.558594
1250.843750	8911.599609
1249.773438	8965.743164
1248.702148	9043.206055
1247.630859	8658.535156
1246.559570	8841.030273
1245.488281	8818.155273
1244.416016	8734.649414
1243.343750	8742.120117
1242.271484	8674.983398
1241.199219	8745.395508
1240.125977	8699.258789
1239.053711	8604.213867
1237.980469	8651.300781
1236.906250	8973.173828
1235.833008	8864.159180
1234.758789	8866.927734
1233.684570	9032.613281
1232.610352	8930.632813
1231.536133	8921.751953
1230.460938	9026.843750
1229.385742	9092.358398
1228.310547	9097.395508
1227.235352	9025.724609
1226.159180	8998.238281
1225.083008	8877.825195
1224.006836	8989.756836
1222.930664	8999.452148
1221.853516	8837.318359
1220.777344	8865.612305
1219.700195	8917.103516
1218.622070	8755.088867
1217.544922	8994.497070
1216.466797	9022.730469
1215.388672	8826.010742
1214.310547	8856.584961
1213.232422	9142.124023
1212.153320	8922.327148
1211.074219	8982.980469
1209.995117	9113.101563
1208.916016	9074.097656
1207.835938	9231.928711
1206.755859	9086.424805
1205.675781	9035.876953
1204.595703	9209.810547
1203.514648	9212.467773
1202.434570	9175.801758
1201.353516	9076.712891
1200.271484	9164.940430
1199.190430	9086.697266
1198.108398	9140.217773
1197.026367	9103.602539
1195.944336	8819.826172
1194.862305	8871.056641
1193.779297	8684.430664
1192.696289	8724.125000
1191.613281	8449.901367
1190.530273	8452.706055
1189.446289	8418.594727
1188.362305	8449.083008
1187.278320	8142.864746
1186.194336	8088.089355
1185.109375	8051.777832
1184.024414	8052.355469
1182.939453	7967.678711
1181.854492	8044.292480
1180.768555	8063.294434
1179.683594	7877.351563
1178.597656	7776.667969
1177.510742	7710.551270
1176.424805	7784.833496
1175.337891	7767.056641
1174.250977	7767.687988
1173.164063	7651.034668
1172.077148	7745.956055
1170.989258	7698.316895
1169.901367	7779.396973
1168.813477	7789.212402
1167.724609	7734.701172
1166.636719	7618.201660
1165.547852	7614.266113
1164.458984	7612.627441
1163.369141	7652.303223
1162.280273	7604.761230
1161.190430	7669.656738
1160.100586	7569.373535
1159.010742	7668.646484
1157.919922	7715.142578
1156.829102	7695.142090
1155.738281	7764.528320
1154.647461	7703.281738
1153.555664	7774.926270
1152.464844	7878.603027
1151.373047	7865.455078
1150.280273	7866.047363
1149.188477	8070.343262
1148.095703	8123.521484
1147.002930	8243.023438
1145.910156	8154.325195
1144.817383	8209.735352
1143.723633	8130.227051
1142.629883	8482.777344
1141.536133	8311.829102
1140.441406	8092.971680
1139.347656	8088.938477
1138.252930	8116.880371
1137.158203	7987.256836
1136.062500	8019.772949
1134.967773	7999.779785
1133.872070	8059.660645
1132.776367	7952.972656
1131.679688	7974.061035
1130.583984	8036.187012
1129.487305	8162.123535
1128.390625	8032.708496
1127.292969	7878.280273
1126.196289	7976.825684
1125.098633	7893.091797
1124.000977	8030.306641
1122.903320	7932.934082
1121.804688	8065.526855
1120.706055	8015.982910
1119.607422	8032.449219
1118.508789	7853.258301
1117.409180	7926.613281
1116.310547	7872.591797
1115.210938	7968.644531
1114.110352	7689.607910
1113.010742	7858.377930
1111.910156	7881.664551
1110.809570	7739.118164
1109.708984	7730.624512
1108.607422	7747.109863
1107.506836	7827.148926
1106.405273	7637.074219
1105.303711	7732.984863
1104.201172	7826.583984
1103.098633	7523.227539
1101.996094	7591.887207
1100.893555	7522.223145
1099.791016	7547.786133
1098.687500	7507.620605
1097.583984	7485.596191
1096.480469	7513.413574
1095.376953	7357.783203
1094.272461	7439.954590
1093.167969	7494.925781
1092.063477	7357.504395
1090.958008	7315.173828
1089.853516	7395.017578
1088.748047	7216.996094
1087.642578	7305.870117
1086.536133	7367.576660
1085.430664	7467.678711
1084.324219	7389.220703
1083.217773	7468.940430
1082.110352	7426.654297
1081.003906	7384.385742
1079.896484	7466.310059
1078.789063	7518.854004
1077.680664	7553.320313
1076.573242	7434.346191
1075.464844	7432.722168
1074.356445	7437.864746
1073.247070	7379.870117
1072.138672	7436.868652
1071.029297	7329.315430
1069.919922	7368.272461
1068.809570	7436.498535
1067.700195	7574.515137
1066.589844	7541.333008
1065.479492	7481.148926
1064.368164	7427.743164
1063.257813	7516.130859
1062.146484	7575.231934
1061.035156	7555.578613
1059.922852	7607.896484
1058.811523	7496.060547
1057.699219	7433.726074
1056.586914	7537.724121
1055.473633	7589.998047
1054.361328	7586.087891
1053.248047	7627.097168
1052.134766	7600.725586
1051.021484	7446.404297
1049.907227	7440.282227
1048.792969	7514.943848
1047.678711	7502.077637
1046.564453	7430.899902
1045.449219	7534.664551
1044.333984	7728.061523
1043.218750	7690.500977
1042.103516	7623.823242
1040.987305	7765.540039
1039.871094	7792.954102
1038.754883	7728.535645
1037.638672	7879.089844
1036.521484	7919.890137
1035.404297	7718.963867
1034.287109	8008.146484
1033.169922	7885.584961
1032.051758	7843.592285
1030.933594	8119.138184
1029.815430	8021.221680
1028.697266	8088.743652
1027.578125	8154.000488
1026.458984	8299.655273
1025.339844	8304.528320
1024.220703	8387.557617
1023.100586	8238.356445
1021.980469	8392.790039
1020.860352	8428.877930
1019.740234	8603.280273
1018.619141	8509.926758
1017.498047	8291.725586
1016.376953	8566.375000
1015.255859	8397.297852
1014.133789	8520.250977
1013.011719	8487.175781
1011.889648	8634.558594
1010.767578	8507.928711
1009.644531	8635.200195
1008.521484	8493.041016
1007.398438	8395.458984
1006.274414	8358.000000
1005.151367	8385.075195
1004.027344	8454.398438
1002.902344	8243.496094
1001.778320	8197.208008
1000.653320	8353.212891
999.528320	8293.585938
998.403320	8209.544922
997.278320	7992.262207
996.152344	7990.493652
995.026367	8084.198730
993.900391	8129.025879
992.773438	8058.426758
991.646484	8076.611816
990.519531	7919.538086
989.392578	8161.749023
988.265625	7887.203613
987.137695	7994.083008
986.009766	8151.891602
984.881836	8134.573242
983.752930	8128.338867
982.624023	8066.733398
981.495117	8133.591309
980.366211	8058.727051
979.236328	8129.982910
978.106445	8265.381836
976.976563	8048.938477
975.846680	8053.787109
974.715820	7963.540039
973.585938	8003.780273
972.454102	8086.000977
971.323242	8165.975098
970.191406	8161.951172
969.060547	8259.542969
967.927734	8153.906250
966.795898	8213.918945
965.663086	8271.696289
964.530273	8305.169922
963.397461	8420.270508
962.264648	8539.731445
961.130859	8612.821289
959.997070	8824.798828
958.863281	8950.701172
957.729492	8732.705078
956.594727	8757.204102
955.459961	8545.956055
954.325195	8585.902344
953.189453	8436.445313
952.053711	8287.054688
950.917969	8324.828125
949.782227	8166.724121
948.646484	7940.484375
947.509766	7989.306641
946.373047	8027.110352
945.235352	7930.774902
944.098633	7832.283691
942.960938	7784.383301
941.823242	7815.604492
940.685547	7864.385254
939.546875	7763.797363
938.408203	7898.201660
937.269531	7942.538574
936.129883	8054.893555
934.991211	8061.871094
933.851563	8123.690430
932.711914	8121.874512
931.571289	8152.951660
930.431641	7977.933594
929.291016	8241.363281
928.149414	8241.711914
927.008789	8193.860352
925.867188	8119.744141
924.725586	8231.801758
923.583984	8335.049805
922.441406	8129.615723
921.299805	8022.751465
920.157227	7913.746094
919.013672	7750.103027
917.871094	7877.396973
916.727539	7521.425781
915.583984	7493.508301
914.439453	7566.135254
913.295898	7555.699219
912.151367	7339.924316
911.006836	7554.495605
909.861328	7461.093262
908.716797	7564.205078
907.571289	7477.389160
906.424805	7408.067871
905.279297	7452.217773
904.132813	7566.142090
902.986328	7466.316895
901.839844	7521.323242
900.692383	7517.454102
899.545898	7552.810547
898.398438	7529.327637
897.250000	7564.664063
896.102539	7702.333496
894.954102	7709.311035
893.805664	7607.451172
892.656250	7533.926758
891.507813	7660.598145
890.358398	7597.969727
889.208984	7587.561523
888.058594	7514.104980
886.908203	7481.981934
885.758789	7478.125000
884.607422	7346.076172
883.457031	7337.905762
882.305664	7366.658203
881.154297	7219.522949
880.002930	7363.340332
878.850586	7394.235840
877.698242	7212.474609
876.545898	7323.654297
875.393555	7293.809082
874.240234	7179.410156
873.086914	7186.462891
871.933594	7150.164551
870.780273	7272.063965
869.625977	7318.084473
868.471680	7416.064941
867.317383	7135.052734
866.162109	7129.112305
865.007813	7175.121094
863.852539	7214.616211
862.696289	7189.188965
861.541016	7161.609863
860.384766	7190.267090
859.228516	7158.374512
858.072266	7102.719238
856.915039	7085.987305
855.757813	7041.174805
854.600586	7231.827148
853.442383	7145.969727
852.285156	7219.920898
851.126953	7220.446777
849.968750	7246.868652
848.809570	7193.446777
847.650391	7127.105957
846.491211	7127.649414
845.332031	7149.753906
844.171875	7143.824219
843.012695	7133.585938
841.851563	7123.352051
840.691406	7261.760742
839.530273	7001.672363
838.369141	7211.100586
837.208008	7155.648926
836.046875	7057.176758
834.884766	7141.646973
833.722656	7152.935547
832.560547	7147.012207
831.397461	7098.085449
830.234375	7167.418945
829.071289	7099.165039
827.908203	7020.196777
826.744141	7070.164063
825.580078	6982.645996
824.416016	7019.713379
823.251953	7157.666504
822.086914	6971.452637
820.921875	7075.018555
819.756836	7163.519043
818.590820	7149.022461
817.425781	7196.720703
816.259766	7306.570801
815.092773	7283.476074
813.926758	7125.383789
812.759766	7140.904297
811.592773	7137.138672
810.424805	7094.827637
809.257813	7221.675781
808.089844	7117.287598
806.920898	7126.368652
805.752930	7238.144531
804.583984	7106.014160
803.415039	7115.089844
802.246094	6974.494141
801.076172	7197.355957
799.906250	7135.877930
798.736328	7273.135254
797.566406	6995.914551
796.395508	7084.019531
795.224609	7208.381836
794.053711	7185.392578
792.881836	7360.895020
791.710938	7523.514648
790.538086	7491.934570
789.366211	7575.536621
788.194336	7537.561523
787.021484	7582.741699
785.848633	7576.750000
784.674805	7387.511230
783.500977	7300.613281
782.327148	7183.936523
781.153320	7224.884277
779.979492	7344.581055
778.804688	7138.580566
777.629883	7122.056152
776.454102	7299.132324
775.279297	7208.135254
774.103516	7244.765137
772.927734	7077.286621
771.750977	7147.935547
770.575195	7146.302734
769.398438	7323.127441
768.220703	7157.905762
767.043945	7279.434082
765.866211	7403.029785
764.688477	7265.494141
763.510742	7287.175781
762.332031	7366.129883
761.153320	7417.472656
759.974609	7383.967285
758.794922	7532.807129
757.616211	7660.382324
756.436523	7849.353516
755.255859	7822.133301
754.076172	8030.043945
752.895508	8161.621094
751.714844	8468.866211
750.533203	8655.316406
749.352539	8951.725586
748.170898	9345.323242
746.988281	10013.726563
745.806641	10929.252930
744.624023	11895.103516
743.441406	13617.258789
742.258789	15924.019531
741.075195	19108.669922
739.891602	22853.751953
738.708008	27076.511719
737.523438	31732.283203
736.339844	35176.363281
735.155273	37797.898438
733.969727	38702.839844
732.785156	37622.351563
731.599609	35099.816406
730.414063	31633.822266
729.227539	27425.289063
728.041992	22894.125000
726.855469	19216.285156
725.667969	16395.396484
724.481445	14173.928711
723.293945	12484.090820
722.106445	11096.059570
720.918945	10291.646484
719.730469	9613.852539
718.541992	8980.544922
717.353516	8673.520508
716.164063	8286.734375
714.975586	8028.359863
713.786133	7839.461426
712.595703	7812.444824
711.406250	7619.479492
710.215820	7439.204102
709.025391	7506.787598
707.833984	7362.308105
706.642578	7291.353516
705.451172	7369.414551
704.259766	7239.749512
703.068359	7271.642578
701.875977	7280.454590
700.683594	7339.576172
699.490234	7363.038574
698.297852	7348.771484
697.104492	7541.913086
695.910156	7355.862305
694.716797	7454.681641
693.522461	7545.081055
692.328125	7723.346191
691.132813	7920.361816
689.938477	7880.880371
688.743164	7981.554199
687.547852	7988.080566
686.351563	8088.681641
685.155273	7953.048340
683.958984	7708.813965
682.762695	7658.986328
681.565430	7527.721191
680.368164	7525.986816
679.170898	7265.371094
677.973633	7269.958496
676.775391	7364.274902
675.577148	7318.764648
674.378906	7292.047363
673.179688	7108.940918
671.980469	7411.691895
670.781250	7168.194336
669.581055	7487.461914
668.381836	7298.227051
667.181641	7367.363281
665.980469	7234.468750
664.780273	7384.784180
663.579102	7524.622070
662.377930	7658.151855
661.175781	7729.203613
659.973633	7698.298828
658.771484	7792.182617
657.569336	7989.977051
656.367188	8156.500977
655.164063	8466.338867
653.960938	8420.752930
652.756836	8551.748047
651.552734	8861.277344
650.348633	8745.039063
649.144531	8819.821289
647.939453	8828.160156
646.735352	8880.065430
645.529297	9129.003906
644.324219	9124.821289
643.118164	9106.125977
641.912109	9218.029297
640.706055	9205.537109
639.499023	9145.395508
638.292969	9120.496094
637.084961	9333.766602
635.877930	9377.159180
634.669922	9639.950195
633.461914	9674.972656
632.253906	9921.019531
631.044922	10020.083984
629.836914	9885.410156
628.626953	9998.909180
627.417969	10093.750977
626.208008	9880.619141
624.998047	9427.909180
623.788086	9256.341797
622.577148	9101.375000
621.366211	8810.207031
620.155273	8651.285156
618.944336	8360.354492
617.732422	8213.988281
616.520508	7910.915527
615.308594	7923.520996
614.095703	7752.614258
612.882813	7573.540039
611.669922	7456.375488
610.457031	7477.313965
609.243164	7224.268066
608.029297	7222.595703
606.815430	7159.152832
605.600586	7015.456543
604.385742	7061.166992
603.170898	7067.762207
601.955078	6942.699219
600.740234	7008.959473
599.524414	6949.764160
598.307617	7094.106445
597.091797	6952.709961
595.875000	7078.491211
594.658203	6970.030762
593.440430	6972.523438
592.222656	6962.694824
591.004883	7014.454102
589.787109	7055.927734
588.568359	7035.825684
587.349609	6890.598145
586.130859	6989.495605
584.912109	7090.396973
583.692383	7297.849121
582.472656	7138.347168
581.251953	7288.318848
580.032227	7157.571777
578.811523	7268.555176
577.589844	7389.725098
576.369141	7408.482422
575.147461	7500.909668
573.925781	7519.631836
572.703125	7614.035156
571.481445	7604.088867
570.258789	7868.140625
569.035156	7886.758301
567.812500	7946.242676
566.588867	8005.699219
565.365234	7936.428223
564.140625	8030.578613
562.916992	7938.872559
561.692383	8010.521973
560.466797	7949.476074
559.242188	7880.296387
558.016602	7807.067871
556.791016	7833.810059
555.564453	7699.454102
554.337891	7732.323242
553.111328	7775.367188
551.884766	7830.616699
550.657227	7724.904785
549.429688	7708.854980
548.202148	7719.283203
546.974609	7538.346680
545.746094	7697.383301
544.517578	7614.205078
543.288086	7561.579590
542.058594	7633.043457
540.829102	7608.904297
539.599609	7779.935547
538.370117	7706.994141
537.139648	7751.940430
535.909180	7528.708496
534.677734	7551.333008
533.446289	7616.587891
532.214844	7275.796875
530.983398	7278.166992
529.750977	7191.253906
528.519531	7224.071777
527.286133	7352.198730
526.053711	7145.691895
524.820313	7229.177246
523.586914	7274.115234
522.353516	7347.399414
521.119141	7444.959961
519.884766	7431.079102
518.650391	7398.979980
517.415039	7107.769043
516.179688	7112.190430
514.944336	7120.656250
513.708984	7116.979980
