#Wave		#Intensity
1585.210938	10297.793945
1584.209961	10382.713867
1583.208984	10258.203125
1582.208008	10330.976563
1581.206055	10368.773438
1580.204102	10458.961914
1579.202148	10394.418945
1578.200195	10429.683594
1577.198242	10330.255859
1576.195313	10338.089844
1575.192383	10370.850586
1574.189453	10298.913086
1573.186523	10376.522461
1572.182617	10404.270508
1571.178711	10332.370117
1570.174805	10255.517578
1569.170898	10280.782227
1568.166992	10258.738281
1567.162109	10400.967773
1566.158203	10359.000977
1565.153320	10294.659180
1564.147461	10252.730469
1563.142578	10141.188477
1562.136719	10499.599609
1561.130859	10549.626953
1560.125000	10634.426758
1559.119141	10627.254883
1558.113281	10664.802734
1557.106445	10973.058594
1556.099609	11139.644531
1555.092773	11395.537109
1554.084961	11415.517578
1553.078125	11289.070313
1552.070313	11579.508789
1551.062500	11329.047852
1550.054688	11314.301758
1549.045898	11517.766602
1548.038086	11359.199219
1547.029297	11210.611328
1546.020508	11064.562500
1545.011719	11196.059570
1544.001953	10970.807617
1542.992188	10792.703125
1541.982422	10783.040039
1540.972656	10654.557617
1539.962891	10620.176758
1538.952148	10447.238281
1537.942383	10388.174805
1536.931641	10413.231445
1535.919922	10235.497070
1534.909180	10238.323242
1533.897461	9996.426758
1532.886719	10159.941406
1531.874023	10135.599609
1530.862305	10061.860352
1529.850586	10037.547852
1528.837891	9991.021484
1527.825195	10238.306641
1526.812500	10088.085938
1525.799805	10145.225586
1524.786133	10180.134766
1523.772461	10091.688477
1522.758789	10161.121094
1521.745117	10232.990234
1520.731445	10267.850586
1519.716797	10292.836914
1518.702148	10179.814453
1517.687500	9926.404297
1516.672852	10247.032227
1515.657227	10210.431641
1514.642578	10237.864258
1513.626953	10105.273438
1512.610352	10083.491211
1511.594727	10135.538086
1510.579102	10138.359375
1509.562500	9922.268555
1508.545898	9974.314453
1507.529297	10136.977539
1506.511719	10048.843750
1505.494141	10184.388672
1504.477539	10216.678711
1503.458984	10241.584961
1502.441406	10396.653320
1501.423828	10352.754883
1500.405273	10286.778320
1499.386719	10127.554688
1498.368164	10378.224609
1497.348633	10579.719727
1496.330078	10476.952148
1495.310547	10494.401367
1494.291016	10578.047852
1493.271484	10588.114258
1492.250977	10750.137695
1491.231445	10566.572266
1490.210938	10417.382813
1489.190430	10559.744141
1488.168945	10530.616211
1487.148438	10626.373047
1486.126953	10474.844727
1485.105469	10675.812500
1484.083984	10602.637695
1483.061523	10607.779297
1482.040039	10549.323242
1481.017578	10774.561523
1479.995117	10850.564453
1478.971680	10867.870117
1477.949219	11014.695313
1476.925781	11273.855469
1475.902344	11159.144531
1474.878906	11269.180664
1473.855469	11332.774414
1472.831055	11335.306641
1471.806641	11584.365234
1470.782227	11830.878906
1469.757813	11994.334961
1468.733398	12223.585938
1467.708008	12303.970703
1466.682617	13013.413086
1465.657227	13291.063477
1464.631836	13639.281250
1463.605469	14062.894531
1462.579102	14330.407227
1461.552734	14692.804688
1460.526367	15042.875000
1459.500000	15042.187500
1458.472656	15160.780273
1457.445313	15259.852539
1456.417969	14933.058594
1455.390625	14518.818359
1454.362305	14243.389648
1453.334961	13771.101563
1452.306641	13311.165039
1451.277344	13208.740234
1450.249023	12846.319336
1449.219727	12481.619141
1448.191406	12153.507813
1447.162109	11951.827148
1446.131836	11871.640625
1445.102539	11883.741211
1444.072266	11522.042969
1443.041992	11461.408203
1442.011719	11420.207031
1440.981445	11507.585938
1439.950195	11556.124023
1438.918945	11187.591797
1437.887695	11284.659180
1436.856445	11190.212891
1435.825195	11326.008789
1434.792969	11103.189453
1433.760742	11045.170898
1432.728516	10982.333008
1431.696289	10757.300781
1430.663086	10801.056641
1429.629883	10689.902344
1428.596680	10409.416992
1427.563477	10571.755859
1426.530273	10385.738281
1425.496094	10535.921875
1424.461914	10366.912109
1423.427734	10236.645508
1422.393555	10367.431641
1421.358398	10510.243164
1420.323242	10239.918945
1419.288086	10078.388672
1418.252930	10233.242188
1417.217773	10407.343750
1416.181641	10238.636719
1415.145508	10431.968750
1414.109375	10405.670898
1413.073242	10485.515625
1412.036133	10589.444336
1411.000000	10852.461914
1409.962891	10787.525391
1408.924805	10891.323242
1407.887695	11214.352539
1406.849609	11436.063477
1405.812500	11811.833008
1404.773438	12006.836914
1403.735352	12471.410156
1402.697266	12841.913086
1401.658203	13217.073242
1400.619141	13125.291992
1399.580078	13209.157227
1398.540039	13425.266602
1397.500977	13626.858398
1396.460938	13575.934570
1395.420898	13181.317383
1394.380859	13068.025391
1393.339844	13014.844727
1392.298828	12966.490234
1391.257813	12795.673828
1390.216797	12648.938477
1389.175781	12711.114258
1388.133789	12670.060547
1387.091797	12566.632813
1386.049805	12907.079102
1385.007813	13278.563477
1383.964844	13714.640625
1382.922852	14167.317383
1381.879883	14454.405273
1380.835938	14904.340820
1379.792969	15294.184570
1378.749023	16069.553711
1377.706055	16102.122070
1376.661133	16606.408203
1375.617188	16473.658203
1374.573242	16601.861328
1373.528320	16409.339844
1372.483398	16324.561523
1371.438477	16189.583984
1370.392578	15820.288086
1369.347656	15453.536133
1368.301758	15407.273438
1367.255859	15126.802734
1366.208984	14655.281250
1365.163086	14468.255859
1364.116211	14123.662109
1363.069336	13860.406250
1362.022461	13716.638672
1360.974609	13494.156250
1359.927734	13696.578125
1358.879883	13252.286133
1357.832031	12948.927734
1356.783203	13282.512695
1355.735352	13241.578125
1354.686523	13365.161133
1353.637695	13603.103516
1352.588867	13843.328125
1351.539063	14002.443359
1350.490234	14259.156250
1349.440430	14956.354492
1348.390625	15360.385742
1347.339844	15664.261719
1346.290039	16401.185547
1345.239258	16878.421875
1344.188477	17384.007813
1343.137695	17896.517578
1342.085938	18456.371094
1341.034180	18875.710938
1339.982422	19244.955078
1338.930664	19718.613281
1337.878906	19631.310547
1336.826172	20083.306641
1335.773438	20100.466797
1334.720703	20100.996094
1333.667969	19980.445313
1332.614258	19575.109375
1331.561523	19547.267578
1330.507813	19144.564453
1329.453125	18855.888672
1328.399414	18209.222656
1327.344727	17567.566406
1326.290039	17122.941406
1325.235352	17003.207031
1324.180664	16594.427734
1323.125000	16136.068359
1322.070313	15957.397461
1321.014648	15631.977539
1319.958008	15481.897461
1318.902344	15135.407227
1317.845703	15172.456055
1316.789063	14774.120117
1315.732422	14449.285156
1314.675781	14384.750000
1313.618164	14218.562500
1312.560547	13946.057617
1311.502930	13503.484375
1310.445313	13351.762695
1309.386719	13126.862305
1308.329102	12864.260742
1307.270508	12991.441406
1306.210938	12398.416016
1305.152344	12412.328125
1304.092773	12202.018555
1303.033203	12086.182617
1301.973633	11873.669922
1300.914063	11819.275391
1299.853516	11611.623047
1298.792969	11686.976563
1297.732422	11552.509766
1296.671875	11385.105469
1295.611328	11229.551758
1294.549805	11319.053711
1293.488281	11175.354492
1292.426758	11182.414063
1291.364258	11128.260742
1290.302734	11318.914063
1289.240234	11076.498047
1288.177734	11022.399414
1287.114258	11078.875977
1286.051758	11010.688477
1284.988281	11208.214844
1283.924805	11177.637695
1282.861328	11318.637695
1281.796875	11478.375977
1280.732422	11638.045898
1279.667969	12098.284180
1278.603516	12415.083984
1277.539063	12673.056641
1276.473633	12776.001953
1275.408203	13038.479492
1274.342773	13286.768555
1273.277344	13183.089844
1272.210938	13567.265625
1271.145508	13601.909180
1270.079102	13235.669922
1269.011719	12911.771484
1267.945313	12988.708008
1266.877930	12559.573242
1265.810547	12402.322266
1264.743164	12104.630859
1263.674805	11715.754883
1262.607422	11460.466797
1261.539063	11443.996094
1260.470703	11383.075195
1259.401367	10936.195313
1258.333008	10735.078125
1257.263672	10679.019531
1256.194336	10426.609375
1255.125000	10515.551758
1254.054688	10384.795898
1252.985352	10342.874023
1251.915039	10293.961914
1250.843750	10041.896484
1249.773438	10317.608398
1248.702148	10159.016602
1247.630859	10126.518555
1246.559570	10077.701172
1245.488281	10026.569336
1244.416016	10080.415039
1243.343750	10045.625977
1242.271484	10071.466797
1241.199219	9987.745117
1240.125977	10029.898438
1239.053711	9992.817383
1237.980469	10011.655273
1236.906250	10039.800781
1235.833008	10179.696289
1234.758789	10133.299805
1233.684570	10010.118164
1232.610352	9982.390625
1231.536133	10178.009766
1230.460938	10131.649414
1229.385742	10087.633789
1228.310547	10099.434570
1227.235352	10350.644531
1226.159180	10292.664063
1225.083008	10264.913086
1224.006836	10116.379883
1222.930664	10355.756836
1221.853516	10218.875000
1220.777344	10274.731445
1219.700195	10047.407227
1218.622070	10131.121094
1217.544922	10186.958008
1216.466797	10187.103516
1215.388672	10296.239258
1214.310547	10233.760742
1213.232422	10180.580078
1212.153320	10287.327148
1211.074219	10414.881836
1209.995117	10468.251953
1208.916016	10389.587891
1207.835938	10551.768555
1206.755859	10290.231445
1205.675781	10429.216797
1204.595703	10459.382813
1203.514648	10496.476563
1202.434570	10473.414063
1201.353516	10441.110352
1200.271484	10443.500000
1199.190430	10420.460938
1198.108398	10335.033203
1197.026367	10305.093750
1195.944336	9967.927734
1194.862305	10152.868164
1193.779297	9862.059570
1192.696289	10035.398438
1191.613281	9973.238281
1190.530273	9823.415039
1189.446289	9648.277344
1188.362305	9634.675781
1187.278320	9508.080078
1186.194336	9485.291016
1185.109375	9610.038086
1184.024414	9342.944336
1182.939453	9331.723633
1181.854492	9431.081055
1180.768555	9189.530273
1179.683594	9314.203125
1178.597656	9247.742188
1177.510742	9020.194336
1176.424805	9183.940430
1175.337891	9152.058594
1174.250977	9044.284180
1173.164063	9005.545898
1172.077148	9111.671875
1170.989258	8971.791992
1169.901367	8926.197266
1168.813477	8963.338867
1167.724609	9053.298828
1166.636719	8980.153320
1165.547852	9063.180664
1164.458984	8801.813477
1163.369141	9059.280273
1162.280273	9135.351563
1161.190430	8915.430664
1160.100586	8936.448242
1159.010742	8984.975586
1157.919922	9040.358398
1156.829102	9104.886719
1155.738281	9077.714844
1154.647461	8990.980469
1153.555664	9149.397461
1152.464844	9046.651367
1151.373047	9431.676758
1150.280273	9454.824219
1149.188477	9464.228516
1148.095703	9512.529297
1147.002930	9478.447266
1145.910156	9371.183594
1144.817383	9494.936523
1143.723633	9465.450195
1142.629883	9433.689453
1141.536133	9461.361328
1140.441406	9507.299805
1139.347656	9441.283203
1138.252930	9548.868164
1137.158203	9370.984375
1136.062500	9430.595703
1134.967773	9138.692383
1133.872070	9209.737305
1132.776367	9137.021484
1131.679688	9354.011719
1130.583984	9217.442383
1129.487305	9001.134766
1128.390625	9274.997070
1127.292969	9293.499023
1126.196289	9428.193359
1125.098633	9264.416992
1124.000977	9221.416016
1122.903320	9283.172852
1121.804688	9146.848633
1120.706055	9210.870117
1119.607422	9217.974609
1118.508789	9236.451172
1117.409180	9243.545898
1116.310547	9000.496094
1115.210938	9055.381836
1114.110352	9069.327148
1113.010742	9187.802734
1111.910156	9099.471680
1110.809570	9108.853516
1109.708984	9090.977539
1108.607422	9154.849609
1107.506836	8939.475586
1106.405273	8960.228516
1105.303711	8872.056641
1104.201172	9092.449219
1103.098633	8936.243164
1101.996094	8888.948242
1100.893555	8925.555664
1099.791016	8740.019531
1098.687500	8701.860352
1097.583984	8801.918945
1096.480469	8761.497070
1095.376953	8619.182617
1094.272461	8773.531250
1093.167969	8873.484375
1092.063477	8552.448242
1090.958008	8670.505859
1089.853516	8709.335938
1088.748047	8723.269531
1087.642578	8558.563477
1086.536133	8495.659180
1085.430664	8658.800781
1084.324219	8645.614258
1083.217773	8711.504883
1082.110352	8571.822266
1081.003906	8707.704102
1079.896484	8617.751953
1078.789063	8633.928711
1077.680664	8706.516602
1076.573242	8553.446289
1075.464844	8820.013672
1074.356445	8621.878906
1073.247070	8696.657227
1072.138672	8681.231445
1071.029297	8622.989258
1069.919922	8612.090820
1068.809570	8616.966797
1067.700195	8630.848633
1066.589844	8574.916992
1065.479492	8732.884766
1064.368164	8897.536133
1063.257813	8636.799805
1062.146484	8754.151367
1061.035156	8687.002930
1059.922852	8696.345703
1058.811523	8746.153320
1057.699219	8667.809570
1056.586914	8726.589844
1055.473633	8828.035156
1054.361328	8545.299805
1053.248047	8752.295898
1052.134766	8772.831055
1051.021484	8752.948242
1049.907227	8737.561523
1048.792969	8836.622070
1047.678711	8738.215820
1046.564453	8769.942383
1045.449219	8718.682617
1044.333984	8784.028320
1043.218750	8701.406250
1042.103516	8795.857422
1040.987305	8744.634766
1039.871094	8693.433594
1038.754883	8727.355469
1037.638672	8982.923828
1036.521484	8916.032227
1035.404297	8934.213867
1034.287109	8880.786133
1033.169922	8860.936523
1032.051758	9026.728516
1030.933594	9073.936523
1029.815430	9177.010742
1028.697266	8989.479492
1027.578125	9266.824219
1026.458984	9155.312500
1025.339844	9097.457031
1024.220703	9140.115234
1023.100586	9243.034180
1021.980469	9182.962891
1020.860352	9330.458008
1019.740234	9497.967773
1018.619141	9308.500000
1017.498047	9301.986328
1016.376953	9420.336914
1015.255859	9427.175781
1014.133789	9289.146484
1013.011719	9389.592773
1011.889648	9273.908203
1010.767578	9499.036133
1009.644531	9550.379883
1008.521484	9396.887695
1007.398438	9170.013672
1006.274414	9223.618164
1005.151367	9221.580078
1004.027344	9177.282227
1002.902344	9264.204102
1001.778320	9173.224609
1000.653320	9315.677734
999.528320	9115.833008
998.403320	9080.490234
997.278320	9236.193359
996.152344	9058.706055
995.026367	8879.075195
993.900391	9041.376953
992.773438	9066.007813
991.646484	8988.558594
990.519531	8984.349609
989.392578	9037.806641
988.265625	9086.803711
987.137695	9013.849609
986.009766	9166.999023
984.881836	9080.762695
983.752930	8981.271484
982.624023	9265.003906
981.495117	9236.375977
980.366211	9190.048828
979.236328	9126.033203
978.106445	9267.849609
976.976563	9062.246094
975.846680	9007.146484
974.715820	9060.433594
973.585938	8974.404297
972.454102	9078.514648
971.323242	9056.607422
970.191406	8802.710938
969.060547	9008.402344
967.927734	9015.234375
966.795898	9205.330078
965.663086	9216.528320
964.530273	9007.014648
963.397461	9121.958984
962.264648	9355.980469
961.130859	9559.018555
959.997070	9477.506836
958.863281	9534.921875
957.729492	9647.413086
956.594727	9570.341797
955.459961	9402.975586
954.325195	9350.219727
953.189453	9246.837891
952.053711	9161.114258
950.917969	9022.599609
949.782227	8901.751953
948.646484	8895.366211
947.509766	8807.594727
946.373047	8985.964844
945.235352	8757.493164
944.098633	8821.485352
942.960938	8841.494141
941.823242	8929.608398
940.685547	8894.664063
939.546875	9009.080078
938.408203	9026.830078
937.269531	8954.564453
936.129883	8937.201172
934.991211	8974.701172
933.851563	9025.347656
932.711914	9157.123047
931.571289	9260.332031
930.431641	9273.608398
929.291016	9278.109375
928.149414	9422.855469
927.008789	9181.943359
925.867188	9293.788086
924.725586	9188.784180
923.583984	9118.855469
922.441406	9175.915039
921.299805	8902.497070
920.157227	8762.663086
919.013672	8933.508789
917.871094	8935.881836
916.727539	8533.756836
915.583984	8630.213867
914.439453	8486.222656
913.295898	8571.720703
912.151367	8665.916992
911.006836	8508.908203
909.861328	8677.314453
908.716797	8448.333008
907.571289	8439.890625
906.424805	8453.270508
905.279297	8368.474609
904.132813	8641.411133
902.986328	8523.900391
901.839844	8602.649414
900.692383	8615.974609
899.545898	8430.994141
898.398438	8542.388672
897.250000	8557.893555
896.102539	8603.878906
894.954102	8497.441406
893.805664	8517.297852
892.656250	8410.926758
891.507813	8678.820313
890.358398	8500.676758
889.208984	8448.746094
888.058594	8453.368164
886.908203	8484.072266
885.758789	8514.760742
884.607422	8471.562500
883.457031	8500.066406
882.305664	8465.576172
881.154297	8396.359375
880.002930	8311.977539
878.850586	8325.297852
877.698242	8325.591797
876.545898	8234.772461
875.393555	8360.877930
874.240234	8250.576172
873.086914	8229.205078
871.933594	8155.825684
870.780273	8195.157227
869.625977	8119.650879
868.471680	8106.989258
867.317383	8154.964355
866.162109	8224.566406
865.007813	8278.985352
863.852539	8339.871094
862.696289	8236.305664
861.541016	8266.889648
860.384766	8295.296875
859.228516	8273.965820
858.072266	8209.412109
856.915039	8147.048340
855.757813	8175.454590
854.600586	8201.687500
853.442383	8223.587891
852.285156	8159.115234
851.126953	8241.455078
849.968750	8213.693359
848.809570	8233.411133
847.650391	8071.921875
846.491211	8143.420410
845.332031	8160.982422
844.171875	8135.423340
843.012695	8239.184570
841.851563	8058.480469
840.691406	8116.972656
839.530273	8084.982422
838.369141	8001.328613
837.208008	8089.930176
836.046875	8047.204590
834.884766	8114.236328
833.722656	8112.396973
832.560547	8058.939453
831.397461	8035.609375
830.234375	7999.390137
829.071289	8006.172852
827.908203	8079.565430
826.744141	8114.253906
825.580078	8161.812988
824.416016	8181.434082
823.251953	8216.074219
822.086914	8074.693848
820.921875	8216.635742
819.756836	8292.003906
818.590820	8064.904297
817.425781	8153.138184
816.259766	8080.535645
815.092773	8224.455078
813.926758	8049.004883
812.759766	8308.558594
811.592773	8220.990234
810.424805	8028.526367
809.257813	8108.059570
808.089844	8005.610352
806.920898	8093.671875
805.752930	7954.898438
804.583984	7993.730957
803.415039	8141.613281
802.246094	8009.335938
801.076172	8041.714844
799.906250	7999.278809
798.736328	7958.997559
797.566406	8016.997559
796.395508	7985.272461
795.224609	8233.270508
794.053711	8261.280273
792.881836	8321.290039
791.710938	8342.865234
790.538086	8543.621094
789.366211	8432.903320
788.194336	8462.964844
787.021484	8490.879883
785.848633	8467.630859
784.674805	8295.235352
783.500977	8257.127930
782.327148	8182.829590
781.153320	8334.275391
779.979492	8100.327637
778.804688	8113.377930
777.629883	8060.456543
776.454102	8279.867188
775.279297	8082.299805
774.103516	8116.603516
772.927734	8101.994141
771.750977	7955.611816
770.575195	8274.666016
769.398438	8100.691895
768.220703	8069.104980
767.043945	8192.548828
765.866211	8207.661133
764.688477	8252.480469
763.510742	8386.406250
762.332031	8318.719727
761.153320	8308.333008
759.974609	8287.347656
758.794922	8433.860352
757.616211	8618.459961
756.436523	8531.721680
755.255859	8811.552734
754.076172	8841.308594
752.895508	8993.877930
751.714844	9222.595703
750.533203	9504.125977
749.352539	9677.598633
748.170898	10162.007813
746.988281	10836.569336
745.806641	11438.918945
744.624023	12484.995117
743.441406	14126.690430
742.258789	16067.726563
741.075195	18827.660156
739.891602	22236.939453
738.708008	25627.755859
737.523438	29050.800781
736.339844	31129.728516
735.155273	33072.632813
733.969727	33295.035156
732.785156	31958.433594
731.599609	29928.585938
730.414063	27077.355469
729.227539	23708.857422
728.041992	20569.515625
726.855469	17640.210938
725.667969	15398.991211
724.481445	13777.985352
723.293945	12418.817383
722.106445	11506.556641
720.918945	10712.573242
719.730469	10051.514648
718.541992	9706.308594
717.353516	9308.681641
716.164063	8936.467773
714.975586	8728.397461
713.786133	8577.168945
712.595703	8522.666992
711.406250	8400.964844
710.215820	8294.019531
709.025391	8258.515625
707.833984	8279.709961
706.642578	8240.027344
705.451172	8166.788574
704.259766	7992.884766
703.068359	8255.317383
701.875977	8094.053711
700.683594	8092.191895
699.490234	8065.178711
698.297852	8124.091309
697.104492	8132.696289
695.910156	8099.407227
694.716797	8244.124023
693.522461	8552.068359
692.328125	8405.679688
691.132813	8525.113281
689.938477	8659.135742
688.743164	8866.301758
687.547852	8795.252930
686.351563	8966.750000
685.155273	8801.652344
683.958984	8726.486328
682.762695	8553.161133
681.565430	8480.174805
680.368164	8319.514648
679.170898	8154.752930
677.973633	8217.578125
676.775391	8203.164063
675.577148	8065.662598
674.378906	8191.038574
673.179688	8272.563477
671.980469	8201.855469
670.781250	8233.314453
669.581055	8335.610352
668.381836	8317.020508
667.181641	8246.364258
665.980469	8240.296875
664.780273	8305.019531
663.579102	8305.184570
662.377930	8438.534180
661.175781	8401.217773
659.973633	8576.083984
658.771484	8673.923828
657.569336	8892.306641
656.367188	9044.071289
655.164063	9189.531250
653.960938	9258.049805
652.756836	9451.166016
651.552734	9397.066406
650.348633	9548.536133
649.144531	9515.194336
647.939453	9554.501953
646.735352	9629.061523
645.529297	9697.363281
644.324219	9805.035156
643.118164	9819.356445
641.912109	9837.815430
640.706055	9821.035156
639.499023	9887.138672
638.292969	9841.353516
637.084961	9944.696289
635.877930	9950.679688
634.669922	9998.058594
633.461914	9910.896484
632.253906	10194.131836
631.044922	10187.637695
629.836914	10247.323242
628.626953	10044.396484
627.417969	9965.589844
626.208008	10112.083008
624.998047	9878.333008
623.788086	9444.319336
622.577148	9435.938477
621.366211	9190.117188
620.155273	9198.311523
618.944336	8894.872070
617.732422	8849.484375
616.520508	8581.332031
615.308594	8441.168945
614.095703	8426.843750
612.882813	8128.053223
611.669922	8227.156250
610.457031	8004.785156
609.243164	8037.951172
608.029297	8019.614258
606.815430	8013.639160
605.600586	8034.427246
604.385742	7839.109863
603.170898	7859.927734
601.955078	8049.416992
600.740234	7922.098633
599.524414	7899.702148
598.307617	7906.094727
597.091797	8013.188477
595.875000	7873.666016
594.658203	7824.594238
593.440430	7974.759766
592.222656	7903.100098
591.004883	7975.169434
589.787109	7901.489746
588.568359	8008.407227
587.349609	7973.729004
586.130859	7916.505859
584.912109	7967.982422
583.692383	7933.335938
582.472656	8007.327637
581.251953	8032.108398
580.032227	8185.935059
578.811523	8157.412109
577.589844	8245.614258
576.369141	8249.843750
575.147461	8460.780273
573.925781	8315.587891
572.703125	8456.857422
571.481445	8428.308594
570.258789	8573.574219
569.035156	8616.559570
567.812500	8804.632813
566.588867	8673.862305
565.365234	8733.135742
564.140625	8749.491211
562.916992	8808.717773
561.692383	8735.224609
560.466797	8667.888672
559.242188	8559.772461
558.016602	8769.946289
556.791016	8541.524414
555.564453	8566.050781
554.337891	8500.867188
553.111328	8417.370117
551.884766	8403.191406
550.657227	8283.085938
549.429688	8391.144531
548.202148	8401.415039
546.974609	8350.607422
545.746094	8395.480469
544.517578	8440.332031
543.288086	8428.201172
542.058594	8263.537109
540.829102	8298.219727
539.599609	8515.847656
538.370117	8416.314453
537.139648	8414.360352
535.909180	8341.304688
534.677734	8438.888672
533.446289	8432.869141
532.214844	8339.557617
530.983398	8242.230469
529.750977	8153.063965
528.519531	8260.718750
527.286133	8171.588867
526.053711	8048.028320
524.820313	8218.475586
523.586914	8174.005371
522.353516	8234.922852
521.119141	8303.916016
519.884766	8383.001953
518.650391	8265.636719
517.415039	8041.030273
516.179688	8089.762207
514.944336	8000.874023
513.708984	8122.420410
