#Wave		#Intensity
1585.210938	13097.655273
1584.209961	13247.513672
1583.208984	13209.809570
1582.208008	13232.038086
1581.206055	13573.757813
1580.204102	13268.981445
1579.202148	13356.054688
1578.200195	13335.826172
1577.198242	13178.433594
1576.195313	13410.093750
1575.192383	13242.778320
1574.189453	13050.607422
1573.186523	13219.849609
1572.182617	13204.654297
1571.178711	13107.263672
1570.174805	13139.415039
1569.170898	13121.754883
1568.166992	13148.909180
1567.162109	13215.875000
1566.158203	13063.836914
1565.153320	13272.597656
1564.147461	12919.136719
1563.142578	13170.115234
1562.136719	13177.333984
1561.130859	13032.916016
1560.125000	13301.110352
1559.119141	13176.603516
1558.113281	13342.802734
1557.106445	13379.779297
1556.099609	13526.000977
1555.092773	13677.126953
1554.084961	13781.029297
1553.078125	13802.992188
1552.070313	13976.295898
1551.062500	14055.262695
1550.054688	14149.077148
1549.045898	14210.617188
1548.038086	14346.504883
1547.029297	14643.442383
1546.020508	14593.327148
1545.011719	14629.946289
1544.001953	14961.318359
1542.992188	14886.401367
1541.982422	15247.292969
1540.972656	15219.380859
1539.962891	15335.029297
1538.952148	15126.473633
1537.942383	15195.086914
1536.931641	15058.374023
1535.919922	15154.173828
1534.909180	14995.273438
1533.897461	14883.404297
1532.886719	14633.182617
1531.874023	14281.756836
1530.862305	14427.022461
1529.850586	14132.590820
1528.837891	14048.176758
1527.825195	13823.071289
1526.812500	13642.489258
1525.799805	13548.354492
1524.786133	13274.145508
1523.772461	13397.203125
1522.758789	13177.395508
1521.745117	13100.693359
1520.731445	13095.515625
1519.716797	12910.411133
1518.702148	12895.416992
1517.687500	12909.992188
1516.672852	13040.333984
1515.657227	12914.497070
1514.642578	13022.622070
1513.626953	13034.695313
1512.610352	13140.288086
1511.594727	13108.038086
1510.579102	13289.835938
1509.562500	13018.980469
1508.545898	13094.977539
1507.529297	13116.851563
1506.511719	13182.961914
1505.494141	13185.146484
1504.477539	13278.243164
1503.458984	13290.231445
1502.441406	13105.727539
1501.423828	13208.602539
1500.405273	13198.500977
1499.386719	13107.402344
1498.368164	13193.033203
1497.348633	13312.976563
1496.330078	13302.859375
1495.310547	13265.767578
1494.291016	13522.933594
1493.271484	13243.109375
1492.250977	13183.992188
1491.231445	13254.775391
1490.210938	12980.079102
1489.190430	13288.473633
1488.168945	13239.188477
1487.148438	13309.899414
1486.126953	13189.637695
1485.105469	13355.778320
1484.083984	13311.412109
1483.061523	13362.474609
1482.040039	13689.905273
1481.017578	13606.368164
1479.995117	13503.305664
1478.971680	13595.837891
1477.949219	13900.951172
1476.925781	13876.078125
1475.902344	14139.476563
1474.878906	14265.991211
1473.855469	14321.637695
1472.831055	14499.329102
1471.806641	14733.085938
1470.782227	15076.561523
1469.757813	15156.389648
1468.733398	15270.333984
1467.708008	15840.294922
1466.682617	16093.034180
1465.657227	16326.165039
1464.631836	16759.058594
1463.605469	17418.396484
1462.579102	17497.617188
1461.552734	17842.306641
1460.526367	18308.617188
1459.500000	18540.994141
1458.472656	18914.460938
1457.445313	18971.378906
1456.417969	18731.414063
1455.390625	18824.835938
1454.362305	18582.564453
1453.334961	18291.757813
1452.306641	18193.140625
1451.277344	17676.472656
1450.249023	17492.962891
1449.219727	16806.572266
1448.191406	16467.845703
1447.162109	16284.698242
1446.131836	15732.535156
1445.102539	15459.788086
1444.072266	15553.666016
1443.041992	15086.930664
1442.011719	14700.453125
1440.981445	14777.447266
1439.950195	14556.108398
1438.918945	14485.191406
1437.887695	14370.666992
1436.856445	14214.987305
1435.825195	13969.713867
1434.792969	14085.521484
1433.760742	13738.642578
1432.728516	13806.014648
1431.696289	13800.722656
1430.663086	13768.805664
1429.629883	13557.807617
1428.596680	13685.649414
1427.563477	13189.292969
1426.530273	13123.665039
1425.496094	13195.897461
1424.461914	12842.591797
1423.427734	12965.612305
1422.393555	12813.082031
1421.358398	12885.316406
1420.323242	12723.202148
1419.288086	12715.723633
1418.252930	12930.394531
1417.217773	12860.107422
1416.181641	12792.261719
1415.145508	12820.969727
1414.109375	13033.023438
1413.073242	12977.243164
1412.036133	13201.233398
1411.000000	13227.417969
1409.962891	13362.067383
1408.924805	13653.318359
1407.887695	13758.907227
1406.849609	14042.725586
1405.812500	14531.156250
1404.773438	14930.282227
1403.735352	15095.703125
1402.697266	15434.366211
1401.658203	15585.171875
1400.619141	15911.558594
1399.580078	15864.941406
1398.540039	16061.256836
1397.500977	16072.334961
1396.460938	15857.422852
1395.420898	15782.007813
1394.380859	15480.732422
1393.339844	15328.541992
1392.298828	15474.273438
1391.257813	15103.601563
1390.216797	15160.477539
1389.175781	14991.672852
1388.133789	14731.735352
1387.091797	14939.824219
1386.049805	14850.337891
1385.007813	15199.830078
1383.964844	15242.219727
1382.922852	15485.988281
1381.879883	15696.094727
1380.835938	15877.352539
1379.792969	16190.319336
1378.749023	16093.508789
1377.706055	16435.039063
1376.661133	16716.558594
1375.617188	16660.396484
1374.573242	16726.328125
1373.528320	16785.052734
1372.483398	16752.832031
1371.438477	16895.248047
1370.392578	16688.429688
1369.347656	16780.583984
1368.301758	16506.939453
1367.255859	16524.998047
1366.208984	16454.632813
1365.163086	16341.292969
1364.116211	16239.942383
1363.069336	16126.692383
1362.022461	16073.178711
1360.974609	16158.136719
1359.927734	16257.376953
1358.879883	16120.353516
1357.832031	16050.182617
1356.783203	16285.329102
1355.735352	16331.995117
1354.686523	16395.328125
1353.637695	16470.552734
1352.588867	16986.615234
1351.539063	16918.726563
1350.490234	17434.474609
1349.440430	17940.480469
1348.390625	18341.505859
1347.339844	18856.628906
1346.290039	19166.847656
1345.239258	19622.087891
1344.188477	20319.804688
1343.137695	20867.376953
1342.085938	21405.205078
1341.034180	21645.607422
1339.982422	22290.011719
1338.930664	22741.642578
1337.878906	23024.376953
1336.826172	23261.855469
1335.773438	23539.609375
1334.720703	23394.566406
1333.667969	23354.042969
1332.614258	23413.226563
1331.561523	23028.613281
1330.507813	22594.333984
1329.453125	22708.193359
1328.399414	22193.527344
1327.344727	21987.318359
1326.290039	21705.335938
1325.235352	21454.283203
1324.180664	21243.617188
1323.125000	21431.048828
1322.070313	21187.312500
1321.014648	20905.787109
1319.958008	20749.861328
1318.902344	20669.750000
1317.845703	20476.070313
1316.789063	20024.564453
1315.732422	19909.166016
1314.675781	19495.806641
1313.618164	19037.693359
1312.560547	18612.869141
1311.502930	18292.222656
1310.445313	17683.406250
1309.386719	17152.810547
1308.329102	16887.000000
1307.270508	16533.917969
1306.210938	16171.539063
1305.152344	15814.033203
1304.092773	15501.519531
1303.033203	15297.681641
1301.973633	14744.771484
1300.914063	14828.933594
1299.853516	14552.258789
1298.792969	14497.321289
1297.732422	14232.617188
1296.671875	14222.544922
1295.611328	14101.735352
1294.549805	14129.382813
1293.488281	13947.407227
1292.426758	13986.847656
1291.364258	13793.205078
1290.302734	13877.379883
1289.240234	13587.359375
1288.177734	13880.929688
1287.114258	13807.431641
1286.051758	13858.604492
1284.988281	13552.370117
1283.924805	13763.420898
1282.861328	13699.406250
1281.796875	13668.314453
1280.732422	13735.901367
1279.667969	13960.823242
1278.603516	13734.789063
1277.539063	13929.093750
1276.473633	14139.745117
1275.408203	14329.186523
1274.342773	14565.470703
1273.277344	14890.792969
1272.210938	14829.009766
1271.145508	14851.662109
1270.079102	14696.141602
1269.011719	14901.624023
1267.945313	14633.678711
1266.877930	14700.862305
1265.810547	14339.379883
1264.743164	14310.582031
1263.674805	14284.136719
1262.607422	13979.148438
1261.539063	13704.711914
1260.470703	13512.283203
1259.401367	13443.916992
1258.333008	13242.268555
1257.263672	12982.246094
1256.194336	12930.398438
1255.125000	12876.233398
1254.054688	12959.962891
1252.985352	12693.208008
1251.915039	12718.543945
1250.843750	12589.735352
1249.773438	12584.727539
1248.702148	12610.066406
1247.630859	12423.014648
1246.559570	12614.042969
1245.488281	12389.742188
1244.416016	12440.752930
1243.343750	12496.405273
1242.271484	12575.345703
1241.199219	12500.415039
1240.125977	12441.828125
1239.053711	12411.223633
1237.980469	12341.031250
1236.906250	12440.875977
1235.833008	12179.778320
1234.758789	12030.529297
1233.684570	12102.444336
1232.610352	12262.750977
1231.536133	12162.430664
1230.460938	12141.233398
1229.385742	12208.409180
1228.310547	12122.111328
1227.235352	11959.143555
1226.159180	11861.313477
1225.083008	12000.514648
1224.006836	12093.197266
1222.930664	11879.276367
1221.853516	11925.503906
1220.777344	11990.282227
1219.700195	11997.008789
1218.622070	12115.112305
1217.544922	12047.568359
1216.466797	12082.108398
1215.388672	11986.770508
1214.310547	12058.402344
1213.232422	12382.663086
1212.153320	12213.159180
1211.074219	12284.694336
1209.995117	12374.729492
1208.916016	12191.437500
1207.835938	12475.955078
1206.755859	12271.881836
1205.675781	12371.097656
1204.595703	12539.689453
1203.514648	12384.315430
1202.434570	12268.327148
1201.353516	11958.134766
1200.271484	12189.092773
1199.190430	12218.845703
1198.108398	12075.256836
1197.026367	12088.845703
1195.944336	11949.962891
1194.862305	11737.233398
1193.779297	11651.592773
1192.696289	11702.193359
1191.613281	11505.806641
1190.530273	11473.342773
1189.446289	11364.756836
1188.362305	11286.203125
1187.278320	11463.659180
1186.194336	11177.610352
1185.109375	11147.551758
1184.024414	11318.006836
1182.939453	11278.712891
1181.854492	11191.057617
1180.768555	11055.073242
1179.683594	11112.569336
1178.597656	10995.075195
1177.510742	10946.681641
1176.424805	11082.399414
1175.337891	10990.292969
1174.250977	11020.133789
1173.164063	10868.287109
1172.077148	11017.697266
1170.989258	10925.679688
1169.901367	10902.646484
1168.813477	11081.820313
1167.724609	10992.142578
1166.636719	11150.547852
1165.547852	11033.337891
1164.458984	11375.322266
1163.369141	11242.045898
1162.280273	11315.351563
1161.190430	11317.503906
1160.100586	11315.066406
1159.010742	11324.095703
1157.919922	11411.074219
1156.829102	11401.738281
1155.738281	11385.530273
1154.647461	11314.337891
1153.555664	11190.487305
1152.464844	11327.782227
1151.373047	11304.730469
1150.280273	11265.664063
1149.188477	11276.965820
1148.095703	11160.117188
1147.002930	11059.332031
1145.910156	11157.586914
1144.817383	11159.751953
1143.723633	11177.918945
1142.629883	11116.073242
1141.536133	11168.520508
1140.441406	10942.191406
1139.347656	10862.158203
1138.252930	10905.488281
1137.158203	10804.945313
1136.062500	10935.016602
1134.967773	10960.041016
1133.872070	10832.166016
1132.776367	10777.350586
1131.679688	10825.198242
1130.583984	10859.342773
1129.487305	11000.626953
1128.390625	10943.539063
1127.292969	11039.164063
1126.196289	10756.525391
1125.098633	11070.830078
1124.000977	11002.385742
1122.903320	10872.492188
1121.804688	10958.917969
1120.706055	10838.191406
1119.607422	10979.197266
1118.508789	10972.266602
1117.409180	11056.317383
1116.310547	11022.083008
1115.210938	10978.768555
1114.110352	10892.285156
1113.010742	10799.020508
1111.910156	10903.460938
1110.809570	10810.232422
1109.708984	10630.744141
1108.607422	10764.667969
1107.506836	10819.081055
1106.405273	10655.590820
1105.303711	10807.572266
1104.201172	10684.988281
1103.098633	10342.453125
1101.996094	10360.613281
1100.893555	10526.125000
1099.791016	10403.705078
1098.687500	10265.475586
1097.583984	10267.773438
1096.480469	10326.697266
1095.376953	10376.535156
1094.272461	10290.502930
1093.167969	10252.043945
1092.063477	10308.653320
1090.958008	10410.490234
1089.853516	10435.368164
1088.748047	10444.402344
1087.642578	10401.424805
1086.536133	10697.567383
1085.430664	10634.209961
1084.324219	10613.813477
1083.217773	10695.088867
1082.110352	10719.860352
1081.003906	10837.207031
1079.896484	10886.769531
1078.789063	10846.020508
1077.680664	11008.394531
1076.573242	11073.678711
1075.464844	11222.395508
1074.356445	10967.354492
1073.247070	10856.729492
1072.138672	10863.374023
1071.029297	10980.450195
1069.919922	10899.184570
1068.809570	10874.273438
1067.700195	10678.197266
1066.589844	10750.171875
1065.479492	10687.034180
1064.368164	10736.464844
1063.257813	10635.100586
1062.146484	10506.781250
1061.035156	10569.711914
1059.922852	10562.900391
1058.811523	10326.756836
1057.699219	10218.843750
1056.586914	10391.901367
1055.473633	10331.205078
1054.361328	10146.982422
1053.248047	10191.921875
1052.134766	10252.559570
1051.021484	10290.719727
1049.907227	10196.440430
1048.792969	10203.179688
1047.678711	10102.229492
1046.564453	10315.335938
1045.449219	10380.345703
1044.333984	10537.246094
1043.218750	10346.648438
1042.103516	10375.750000
1040.987305	10200.953125
1039.871094	10368.952148
1038.754883	10350.997070
1037.638672	10518.887695
1036.521484	10545.675781
1035.404297	10507.548828
1034.287109	10529.851563
1033.169922	10525.297852
1032.051758	10607.971680
1030.933594	10648.123047
1029.815430	10583.183594
1028.697266	10493.686523
1027.578125	10475.734375
1026.458984	10754.923828
1025.339844	10553.764648
1024.220703	10625.132813
1023.100586	10774.609375
1021.980469	10720.896484
1020.860352	10874.748047
1019.740234	10834.421875
1018.619141	10905.644531
1017.498047	10782.811523
1016.376953	10878.538086
1015.255859	10853.846680
1014.133789	10875.967773
1013.011719	10673.030273
1011.889648	10891.216797
1010.767578	10659.411133
1009.644531	10739.445313
1008.521484	10683.644531
1007.398438	10670.156250
1006.274414	10812.439453
1005.151367	10934.636719
1004.027344	10892.183594
1002.902344	10914.237305
1001.778320	10760.641602
1000.653320	10860.510742
999.528320	10731.438477
998.403320	10526.880859
997.278320	10449.027344
996.152344	10577.743164
995.026367	10642.011719
993.900391	10566.401367
992.773438	10748.267578
991.646484	10608.319336
990.519531	10621.498047
989.392578	10816.535156
988.265625	10705.487305
987.137695	10743.018555
986.009766	10891.352539
984.881836	10702.802734
983.752930	10786.830078
982.624023	10534.152344
981.495117	10790.904297
980.366211	10578.186523
979.236328	10717.500000
978.106445	10710.695313
976.976563	10641.944336
975.846680	10546.678711
974.715820	10462.512695
973.585938	10331.951172
972.454102	10241.236328
971.323242	10362.721680
970.191406	10252.153320
969.060547	10455.313477
967.927734	10521.454102
966.795898	10519.115234
965.663086	10711.041016
964.530273	10624.790039
963.397461	10807.778320
962.264648	11094.370117
961.130859	11186.742188
959.997070	11431.223633
958.863281	11316.244141
957.729492	11587.035156
956.594727	11582.250977
955.459961	11365.967773
954.325195	11222.466797
953.189453	11211.157227
952.053711	10920.241211
950.917969	10988.245117
949.782227	10730.516602
948.646484	10560.910156
947.509766	10540.957031
946.373047	10408.853516
945.235352	10498.876953
944.098633	10243.738281
942.960938	10406.283203
941.823242	10456.694336
940.685547	10368.686523
939.546875	10105.016602
938.408203	10386.014648
937.269531	10508.826172
936.129883	10572.322266
934.991211	10563.376953
933.851563	10646.575195
932.711914	10753.862305
931.571289	10617.695313
930.431641	10713.976563
929.291016	10667.744141
928.149414	10575.511719
927.008789	10496.465820
925.867188	10774.486328
924.725586	10726.087891
923.583984	10688.656250
922.441406	10528.662109
921.299805	10495.666992
920.157227	10478.000977
919.013672	10388.157227
917.871094	10368.333984
916.727539	10261.061523
915.583984	10304.666992
914.439453	10112.220703
913.295898	10192.983398
912.151367	10053.075195
911.006836	10135.997070
909.861328	10103.154297
908.716797	10085.607422
907.571289	9865.089844
906.424805	10216.369141
905.279297	10061.367188
904.132813	9904.251953
902.986328	10122.267578
901.839844	9978.289063
900.692383	9934.634766
899.545898	9858.313477
898.398438	10089.211914
897.250000	10067.341797
896.102539	10075.967773
894.954102	9990.970703
893.805664	9899.481445
892.656250	9982.126953
891.507813	9912.435547
890.358398	10066.820313
889.208984	10114.574219
888.058594	9975.322266
886.908203	9957.861328
885.758789	9914.329102
884.607422	9727.413086
883.457031	9877.281250
882.305664	9877.229492
881.154297	9985.740234
880.002930	9820.681641
878.850586	9775.062500
877.698242	9722.954102
876.545898	9805.367188
875.393555	9727.247070
874.240234	9874.670898
873.086914	9603.628906
871.933594	9720.668945
870.780273	9709.809570
869.625977	9815.938477
868.471680	9677.271484
867.317383	9696.742188
866.162109	9703.213867
865.007813	9568.992188
863.852539	9742.112305
862.696289	9729.094727
861.541016	9854.513672
860.384766	9748.488281
859.228516	9679.263672
858.072266	9694.369141
856.915039	9955.823242
855.757813	9765.606445
854.600586	9778.519531
853.442383	9750.393555
852.285156	9722.280273
851.126953	9661.799805
849.968750	9875.422852
848.809570	9648.798828
847.650391	9659.557617
846.491211	9609.926758
845.332031	9549.535156
844.171875	9603.420898
843.012695	9527.970703
841.851563	9579.680664
840.691406	9506.422852
839.530273	9489.193359
838.369141	9609.776367
837.208008	9579.614258
836.046875	9631.249023
834.884766	9519.327148
833.722656	9644.093750
832.560547	9566.629883
831.397461	9525.755859
830.234375	9575.190430
829.071289	9480.598633
827.908203	9654.650391
826.744141	9626.680664
825.580078	9622.347656
824.416016	9742.563477
823.251953	9549.280273
822.086914	9652.285156
820.921875	9748.804688
819.756836	9600.703125
818.590820	9757.247070
817.425781	9615.642578
816.259766	9568.434570
815.092773	9611.273438
813.926758	9679.807617
812.759766	9555.485352
811.592773	9469.775391
810.424805	9534.008789
809.257813	9557.533203
808.089844	9448.333008
806.920898	9548.906250
805.752930	9606.641602
804.583984	9510.336914
803.415039	9542.389648
802.246094	9651.399414
801.076172	9448.266602
799.906250	9661.965820
798.736328	9461.058594
797.566406	9616.979492
796.395508	9529.362305
795.224609	9546.408203
794.053711	9806.801758
792.881836	9789.627930
791.710938	9923.955078
790.538086	10000.623047
789.366211	10215.884766
788.194336	10034.445313
787.021484	10138.746094
785.848633	10277.099609
784.674805	10100.029297
783.500977	10172.287109
782.327148	10074.124023
781.153320	10014.333008
779.979492	9750.197266
778.804688	9950.167969
777.629883	9920.234375
776.454102	9858.402344
775.279297	9922.085938
774.103516	9858.154297
772.927734	10015.348633
771.750977	9794.138672
770.575195	10023.523438
769.398438	9974.495117
768.220703	10014.696289
767.043945	10042.136719
765.866211	9997.380859
764.688477	10203.105469
763.510742	10325.974609
762.332031	10457.273438
761.153320	10599.117188
759.974609	10895.699219
758.794922	11166.703125
757.616211	11373.993164
756.436523	11854.558594
755.255859	12481.090820
754.076172	13230.190430
752.895508	14211.893555
751.714844	15364.640625
750.533203	16521.091797
749.352539	17670.664063
748.170898	19213.240234
746.988281	20076.103516
745.806641	21004.128906
744.624023	21730.869141
743.441406	22057.761719
742.258789	22898.042969
741.075195	23942.884766
739.891602	25378.035156
738.708008	27131.419922
737.523438	29236.605469
736.339844	31034.738281
735.155273	32454.275391
733.969727	33546.117188
732.785156	32876.050781
731.599609	31584.138672
730.414063	29803.644531
729.227539	27092.222656
728.041992	24308.277344
726.855469	21605.677734
725.667969	19308.775391
724.481445	17674.236328
723.293945	16377.341797
722.106445	15043.149414
720.918945	14433.561523
719.730469	13487.588867
718.541992	12979.611328
717.353516	12684.288086
716.164063	12050.564453
714.975586	11568.490234
713.786133	11254.776367
712.595703	10834.041016
711.406250	10623.575195
710.215820	10564.425781
709.025391	10154.635742
707.833984	10265.665039
706.642578	10261.205078
705.451172	10139.240234
704.259766	10176.767578
703.068359	10048.583984
701.875977	10100.791992
700.683594	10148.782227
699.490234	10506.949219
698.297852	10680.549805
697.104492	10747.226563
695.910156	10855.761719
694.716797	11184.116211
693.522461	11256.909180
692.328125	11262.689453
691.132813	11211.967773
689.938477	11339.095703
688.743164	11077.125000
687.547852	11114.305664
686.351563	11015.576172
685.155273	10766.400391
683.958984	10661.525391
682.762695	10746.815430
681.565430	10564.709961
680.368164	10370.158203
679.170898	10286.345703
677.973633	10361.204102
676.775391	10200.219727
675.577148	10270.888672
674.378906	10147.542969
673.179688	10120.179688
671.980469	10167.882813
670.781250	10253.082031
669.581055	10217.374023
668.381836	10079.595703
667.181641	10129.343750
665.980469	10187.398438
664.780273	10087.194336
663.579102	10045.318359
662.377930	10292.722656
661.175781	10130.145508
659.973633	10360.774414
658.771484	10389.577148
657.569336	10495.291016
656.367188	10671.629883
655.164063	10843.729492
653.960938	10799.672852
652.756836	11162.762695
651.552734	11324.243164
650.348633	11305.018555
649.144531	11316.937500
647.939453	11517.699219
646.735352	11608.403320
645.529297	11761.293945
644.324219	11808.348633
643.118164	11871.966797
641.912109	11576.949219
640.706055	11723.485352
639.499023	11499.082031
638.292969	11305.852539
637.084961	11075.434570
635.877930	11308.908203
634.669922	11101.364258
633.461914	11105.005859
632.253906	11001.055664
631.044922	10969.551758
629.836914	11186.230469
628.626953	10985.154297
627.417969	10904.062500
626.208008	10942.873047
624.998047	10944.474609
623.788086	11086.540039
622.577148	10999.301758
621.366211	11106.187500
620.155273	10990.083984
618.944336	10948.328125
617.732422	10784.857422
616.520508	10736.979492
615.308594	10691.185547
614.095703	10651.596680
612.882813	10500.710938
611.669922	10374.625977
610.457031	10147.636719
609.243164	10019.629883
608.029297	9986.416992
606.815430	9901.745117
605.600586	9963.265625
604.385742	9829.243164
603.170898	9783.757813
601.955078	10042.743164
600.740234	9871.774414
599.524414	9976.407227
598.307617	9704.803711
597.091797	9735.438477
595.875000	9757.838867
594.658203	9811.042969
593.440430	9648.576172
592.222656	9582.688477
591.004883	9635.893555
589.787109	9691.125977
588.568359	9582.183594
587.349609	9662.017578
586.130859	9483.400391
584.912109	9487.353516
583.692383	9550.752930
582.472656	9423.520508
581.251953	9740.980469
580.032227	9734.625000
578.811523	9840.915039
577.589844	9736.254883
576.369141	9858.870117
575.147461	10038.734375
573.925781	10161.222656
572.703125	10079.083984
571.481445	10322.171875
570.258789	10250.256836
569.035156	10703.750000
567.812500	10590.903320
566.588867	10625.225586
565.365234	10945.530273
564.140625	11181.947266
562.916992	10983.332031
561.692383	10854.215820
560.466797	10902.721680
559.242188	10832.856445
558.016602	10750.783203
556.791016	10707.499023
555.564453	10607.139648
554.337891	10439.553711
553.111328	10329.112305
551.884766	10224.833008
550.657227	10134.863281
549.429688	10075.483398
548.202148	9893.958984
546.974609	9950.699219
545.746094	10015.553711
544.517578	10263.508789
543.288086	10000.733398
542.058594	10171.290039
540.829102	9943.223633
539.599609	10148.272461
538.370117	10034.132813
537.139648	10019.611328
535.909180	10047.757813
534.677734	10037.301758
533.446289	9943.596680
532.214844	9884.446289
530.983398	9807.056641
529.750977	9843.333008
528.519531	9814.674805
527.286133	9692.733398
526.053711	9749.287109
524.820313	9728.778320
523.586914	9694.090820
522.353516	9722.234375
521.119141	9847.605469
519.884766	9895.953125
518.650391	9723.563477
517.415039	9630.207031
516.179688	9686.666016
514.944336	9658.111328
513.708984	9494.027344
