#Wave		#Intensity
1585.210938	1788.314453
1584.209961	1708.389771
1583.208984	1762.972656
1582.208008	1670.232788
1581.206055	1692.351563
1580.204102	1776.850586
1579.202148	1798.937988
1578.200195	1728.718140
1577.198242	1800.686768
1576.195313	1742.963135
1575.192383	1775.010986
1574.189453	1732.271240
1573.186523	1714.468750
1572.182617	1629.404541
1571.178711	1728.704102
1570.174805	1690.989990
1569.170898	1713.048828
1568.166992	1757.502930
1567.162109	1796.960693
1566.158203	1749.309937
1565.153320	1716.605835
1564.147461	1726.199707
1563.142578	1626.369995
1562.136719	1673.272705
1561.130859	1675.411987
1560.125000	1727.255615
1559.119141	1694.596191
1558.113281	1609.781494
1557.106445	1636.769043
1556.099609	1730.791748
1555.092773	1762.708374
1554.084961	1772.272095
1553.078125	1712.345337
1552.070313	1689.660522
1551.062500	1758.768311
1550.054688	1681.520508
1549.045898	1651.417114
1548.038086	1703.136108
1547.029297	1702.783447
1546.020508	1650.391602
1545.011719	1627.751953
1544.001953	1652.185303
1542.992188	1703.850220
1541.982422	1688.641479
1540.972656	1673.438843
1539.962891	1732.492065
1538.952148	1714.812012
1537.942383	1664.977783
1536.931641	1726.469360
1535.919922	1733.530640
1534.909180	1735.644165
1533.897461	1661.127319
1532.886719	1710.211548
1531.874023	1660.439575
1530.862305	1677.388428
1529.850586	1657.282227
1528.837891	1681.632690
1527.825195	1656.595947
1526.812500	1656.252930
1525.799805	1678.120483
1524.786133	1621.024780
1523.772461	1674.958740
1522.758789	1714.072632
1521.745117	1669.333618
1520.731445	1622.147827
1519.716797	1668.642334
1518.702148	1621.476074
1517.687500	1830.558105
1516.672852	1731.649902
1515.657227	1696.813232
1514.642578	1686.613037
1513.626953	1671.493530
1512.610352	1744.983032
1511.594727	1688.026001
1510.579102	1707.357666
1509.562500	1670.109131
1508.545898	1659.926636
1507.529297	1681.710571
1506.511719	1750.189941
1505.494141	1700.675049
1504.477539	1680.665771
1503.458984	1692.600708
1502.441406	1616.111084
1501.423828	1682.077148
1500.405273	1598.255981
1499.386719	1698.562256
1498.368164	1668.761597
1497.348633	1739.568848
1496.330078	1697.506714
1495.310547	1655.461792
1494.291016	1667.378906
1493.271484	1694.000122
1492.250977	1725.512329
1491.231445	1676.144653
1490.210938	1690.497192
1489.190430	1673.000488
1488.168945	1736.327271
1487.148438	1674.755493
1486.126953	1774.775024
1485.105469	1713.220703
1484.083984	1627.222290
1483.061523	1714.956909
1482.040039	1653.453003
1481.017578	1702.018799
1479.995117	1709.000610
1478.971680	1620.647339
1477.949219	1632.530884
1476.925781	1739.702026
1475.902344	1749.112793
1474.878906	1738.980591
1473.855469	1738.619873
1472.831055	1804.176514
1471.806641	1691.522339
1470.782227	1781.464844
1469.757813	1644.463379
1468.733398	1734.378174
1467.708008	1743.773804
1466.682617	1777.548828
1465.657227	1662.601807
1464.631836	1730.502075
1463.605469	1722.832520
1462.579102	1773.637695
1461.552734	1751.347290
1460.526367	1789.948730
1459.500000	1792.011963
1458.472656	1733.217041
1457.445313	1830.208740
1456.417969	1786.029785
1455.390625	1841.612915
1454.362305	1795.017334
1453.334961	1743.577637
1452.306641	1786.978271
1451.277344	1769.591919
1450.249023	1742.491699
1449.219727	1715.402588
1448.191406	1804.928345
1447.162109	1743.834961
1446.131836	1753.185669
1445.102539	1823.225708
1444.072266	1779.156860
1443.041992	1880.709595
1442.011719	1812.384644
1440.981445	1812.008057
1439.950195	1828.608032
1438.918945	1782.158569
1437.887695	1859.362671
1436.856445	1774.146729
1435.825195	1800.433105
1434.792969	1824.285767
1433.760742	1789.995972
1432.728516	1825.948975
1431.696289	1760.197510
1430.663086	1791.300293
1429.629883	1759.465454
1428.596680	1739.742188
1427.563477	1732.122925
1426.530273	1722.087891
1425.496094	1721.729736
1424.461914	1709.283203
1423.427734	1725.847656
1422.393555	1684.405518
1421.358398	1720.297241
1420.323242	1693.367188
1419.288086	1700.260132
1418.252930	1670.930542
1417.217773	1670.582764
1416.181641	1704.025879
1415.145508	1681.952881
1414.109375	1729.855225
1413.073242	1722.258667
1412.036133	1668.844238
1411.000000	1707.074707
1409.962891	1699.487183
1408.924805	1725.644531
1407.887695	1768.658081
1406.849609	1662.288574
1405.812500	1777.555664
1404.773438	1724.206787
1403.735352	1649.211670
1402.697266	1677.753174
1401.658203	1713.502563
1400.619141	1751.642944
1399.580078	1763.305786
1398.540039	1726.861694
1397.500977	1829.899292
1396.460938	1733.353760
1395.420898	1769.046265
1394.380859	1749.452515
1393.339844	1741.879761
1392.298828	1736.712158
1391.257813	1726.743530
1390.216797	1731.185303
1389.175781	1704.417603
1388.133789	1728.062744
1387.091797	1744.499146
1386.049805	1705.749634
1385.007813	1722.183594
1383.964844	1702.639404
1382.922852	1661.524902
1381.879883	1663.575073
1380.835938	1713.555786
1379.792969	1648.503662
1378.749023	1669.719604
1377.706055	1714.877197
1376.661133	1740.859253
1375.617188	1742.889526
1374.573242	1675.505127
1373.528320	1756.519653
1372.483398	1660.449341
1371.438477	1751.001099
1370.392578	1748.243408
1369.347656	1774.179688
1368.301758	1671.013916
1367.255859	1785.388062
1366.208984	1796.962524
1365.163086	1693.856201
1364.116211	1693.501831
1363.069336	1695.535522
1362.022461	1671.304932
1360.974609	1668.568115
1359.927734	1746.975952
1358.879883	1698.888672
1357.832031	1650.821411
1356.783203	1722.028076
1355.735352	1738.359497
1354.686523	1697.466064
1353.637695	1794.837402
1352.588867	1753.948975
1351.539063	1739.286011
1350.490234	1741.303589
1349.440430	1779.044067
1348.390625	1692.952148
1347.339844	1756.873047
1346.290039	1694.622437
1345.239258	1775.173218
1344.188477	1703.428223
1343.137695	1741.128418
1342.085938	1721.738525
1341.034180	1776.062012
1339.982422	1806.591675
1338.930664	1772.940186
1337.878906	1820.090088
1336.826172	1864.844482
1335.773438	1802.700439
1334.720703	1837.941040
1333.667969	1801.943604
1332.614258	1796.817993
1331.561523	1841.529663
1330.507813	1966.890991
1329.453125	1779.081299
1328.399414	1880.686768
1327.344727	1839.982666
1326.290039	1887.008301
1325.235352	1874.761108
1324.180664	1819.865845
1323.125000	1821.852417
1322.070313	1854.630005
1321.014648	1830.558838
1319.958008	1849.114746
1318.902344	1820.320313
1317.845703	1893.302856
1316.789063	1852.680298
1315.732422	1826.268433
1314.675781	1740.739258
1313.618164	1785.301025
1312.560547	1806.202393
1311.502930	1827.094971
1310.445313	1720.368652
1309.386719	1753.083496
1308.329102	1771.611450
1307.270508	1799.578003
1306.210938	1716.558472
1305.152344	1753.967285
1304.092773	1755.957764
1303.033203	1781.543945
1301.973633	1748.140137
1300.914063	1797.303467
1299.853516	1780.417358
1298.792969	1699.881104
1297.732422	1756.094727
1296.671875	1774.577637
1295.611328	1771.847046
1294.549805	1590.085693
1293.488281	1726.350830
1292.426758	1798.981689
1291.364258	1690.309204
1290.302734	1654.646851
1289.240234	1713.127441
1288.177734	1658.653564
1287.114258	1702.994995
1286.051758	1657.952881
1284.988281	1688.168213
1283.924805	1664.304321
1282.861328	1633.399780
1281.796875	1656.551758
1280.732422	1724.328979
1279.667969	1665.246216
1278.603516	1617.929443
1277.539063	1629.325928
1276.473633	1626.634033
1275.408203	1619.249634
1274.342773	1611.868286
1273.277344	1721.777222
1272.210938	1557.245361
1271.145508	1636.637207
1270.079102	1629.257935
1269.011719	1633.600464
1267.945313	1649.657349
1266.877930	1600.109741
1265.810547	1693.461548
1264.743164	1646.267334
1263.674805	1606.116699
1262.607422	1591.731567
1261.539063	1610.116455
1260.470703	1689.327881
1259.401367	1574.344238
1258.333008	1648.851807
1257.263672	1625.119141
1256.194336	1594.382813
1255.125000	1601.056519
1254.054688	1603.053467
1252.985352	1635.421631
1251.915039	1604.708862
1250.843750	1616.044678
1249.773438	1692.750854
1248.702148	1603.686768
1247.630859	1694.365723
1246.559570	1661.338989
1245.488281	1686.647217
1244.416016	1583.665405
1243.343750	1629.965820
1242.271484	1655.264282
1241.199219	1643.258057
1240.125977	1582.318970
1239.053711	1595.961670
1237.980469	1567.669678
1236.906250	1618.571533
1235.833008	1648.496094
1234.758789	1603.915283
1233.684570	1650.121704
1232.610352	1528.771729
1231.536133	1621.502319
1230.460938	1597.897949
1229.385742	1569.652588
1228.310547	1578.617920
1227.235352	1641.040894
1226.159180	1640.691162
1225.083008	1593.872803
1224.006836	1653.929321
1222.930664	1632.674805
1221.853516	1625.360718
1220.777344	1627.335571
1219.700195	1575.927368
1218.622070	1608.077637
1217.544922	1630.934082
1216.466797	1635.224854
1215.388672	1609.367188
1214.310547	1680.896362
1213.232422	1604.043945
1212.153320	1594.431519
1211.074219	1633.479736
1209.995117	1647.029785
1208.916016	1623.517822
1207.835938	1618.539795
1206.755859	1648.288940
1205.675781	1615.533325
1204.595703	1603.617798
1203.514648	1654.172485
1202.434570	1586.740723
1201.353516	1565.588379
1200.271484	1611.494263
1199.190430	1664.315063
1198.108398	1562.272461
1197.026367	1571.180176
1195.944336	1593.944458
1194.862305	1584.364746
1193.779297	1584.025391
1192.696289	1588.303223
1191.613281	1592.579102
1190.530273	1571.469482
1189.446289	1591.896484
1188.362305	1522.357178
1187.278320	1538.173584
1186.194336	1519.398804
1185.109375	1565.175293
1184.024414	1567.144165
1182.939453	1610.586304
1181.854492	1601.026123
1180.768555	1598.379395
1179.683594	1568.101807
1178.597656	1567.765137
1177.510742	1611.160034
1176.424805	1567.091797
1175.337891	1594.363159
1174.250977	1557.217896
1173.164063	1538.485718
1172.077148	1653.114380
1170.989258	1567.707397
1169.901367	1535.195557
1168.813477	1546.354004
1167.724609	1506.968750
1166.636719	1541.095337
1165.547852	1605.057861
1164.458984	1570.276611
1163.369141	1611.252808
1162.280273	1597.137451
1161.190430	1601.382080
1160.100586	1575.806030
1159.010742	1561.707031
1157.919922	1598.054810
1156.829102	1556.449585
1155.738281	1540.071777
1154.647461	1606.186890
1153.555664	1541.698608
1152.464844	1561.978882
1151.373047	1566.221558
1150.280273	1545.280029
1149.188477	1538.080200
1148.095703	1684.200562
1147.002930	1551.143433
1145.910156	1539.371948
1144.817383	1536.752686
1143.723633	1584.434082
1142.629883	1606.950317
1141.536133	1542.613281
1140.441406	1567.413452
1139.347656	1512.250000
1138.252930	1653.523193
1137.158203	1596.081299
1136.062500	1591.170532
1134.967773	1508.660278
1133.872070	1592.764160
1132.776367	1631.203491
1131.679688	1637.693359
1130.583984	1730.835938
1129.487305	1668.903442
1128.390625	1579.644409
1127.292969	1636.275757
1126.196289	1610.858521
1125.098633	1530.781494
1124.000977	1655.709839
1122.903320	1634.858398
1121.804688	1598.080688
1120.706055	1675.117432
1119.607422	1551.878296
1118.508789	1658.466187
1117.409180	1594.420654
1116.310547	1562.238770
1115.210938	1580.087891
1114.110352	1593.383057
1113.010742	1570.312134
1111.910156	1572.243286
1110.809570	1574.173462
1109.708984	1612.439209
1108.607422	1541.702026
1107.506836	1525.476807
1106.405273	1550.110474
1105.303711	1615.576660
1104.201172	1560.779663
1103.098633	1576.316895
1101.996094	1639.466675
1100.893555	1559.761841
1099.791016	1591.154907
1098.687500	1531.889893
1097.583984	1613.118774
1096.480469	1612.767700
1095.376953	1571.653320
1094.272461	1580.367676
1093.167969	1516.641602
1092.063477	1568.363647
1090.958008	1531.819580
1089.853516	1578.991211
1088.748047	1571.862183
1087.642578	1544.385376
1086.536133	1473.967407
1085.430664	1557.273193
1084.324219	1563.712769
1083.217773	1529.483521
1082.110352	1524.632446
1081.003906	1524.299805
1079.896484	1523.967163
1078.789063	1618.438354
1077.680664	1493.964233
1076.573242	1565.838013
1075.464844	1576.774780
1074.356445	1580.940918
1073.247070	1582.850220
1072.138672	1577.995850
1071.029297	1478.484253
1069.919922	1529.986816
1068.809570	1599.489258
1067.700195	1536.074829
1066.589844	1533.486938
1065.479492	1602.942505
1064.368164	1568.829346
1063.257813	1584.238403
1062.146484	1599.640503
1061.035156	1552.053955
1059.922852	1583.198120
1058.811523	1580.603027
1057.699219	1551.034424
1056.586914	1510.241699
1055.473633	1563.836182
1054.361328	1532.043823
1053.248047	1574.380249
1052.134766	1549.335449
1051.021484	1508.587158
1049.907227	1598.033447
1048.792969	1588.707153
1047.678711	1536.759277
1046.564453	1567.823364
1045.449219	1511.417725
1044.333984	1609.732544
1043.218750	1533.168945
1042.103516	1541.796143
1040.987305	1492.166748
1039.871094	1552.318848
1038.754883	1578.851807
1037.638672	1562.831665
1036.521484	1571.442261
1035.404297	1593.477051
1034.287109	1521.525513
1033.169922	1565.931763
1032.051758	1614.791382
1030.933594	1576.423096
1029.815430	1522.422485
1028.697266	1586.904663
1027.578125	1573.147827
1026.458984	1554.928711
1025.339844	1628.295044
1024.220703	1567.642456
1023.100586	1560.599243
1021.980469	1508.916504
1020.860352	1571.069702
1019.740234	1526.100586
1018.619141	1608.298218
1017.498047	1599.022949
1016.376953	1571.914185
1015.255859	1549.275757
1014.133789	1522.189819
1013.011719	1553.048462
1011.889648	1463.597778
1010.767578	1550.135742
1009.644531	1527.526367
1008.521484	1542.772583
1007.398438	1549.109009
1006.274414	1564.343506
1005.151367	1541.750366
1004.027344	1583.670532
1002.902344	1505.488770
1001.778320	1556.291138
1000.653320	1544.833130
999.528320	1557.825195
998.403320	1537.484497
997.278320	1581.570435
996.152344	1567.895630
995.026367	1574.209595
993.900391	1518.365356
992.773438	1482.519653
991.646484	1502.161011
990.519531	1486.299805
989.392578	1528.110107
988.265625	1543.293091
987.137695	1536.300537
986.009766	1575.855103
984.881836	1564.426147
983.752930	1564.079346
982.624023	1461.846191
981.495117	1547.884644
980.366211	1571.894531
979.236328	1556.051636
978.106445	1546.854614
976.976563	1535.448853
975.846680	1568.287598
974.715820	1523.709839
973.585938	1499.050537
972.454102	1584.927002
971.323242	1569.104858
970.191406	1533.403931
969.060547	1563.989502
967.927734	1552.599121
966.795898	1530.173584
965.663086	1536.455933
964.530273	1551.563721
963.397461	1617.415649
962.264648	1588.376831
961.130859	1554.939453
959.997070	1647.207520
958.863281	1507.950684
957.729492	1578.146606
956.594727	1617.460449
955.459961	1553.209351
954.325195	1555.066040
953.189453	1556.921631
952.053711	1598.406372
950.917969	1545.221924
949.782227	1617.500000
948.646484	1474.127075
947.509766	1528.790771
946.373047	1495.461670
945.235352	1547.897339
944.098633	1558.543091
942.960938	1470.285767
941.823242	1531.480591
940.685547	1539.925659
939.546875	1528.600586
938.408203	1563.391602
937.269531	1534.503784
936.129883	1529.771362
934.991211	1481.154907
933.851563	1546.638306
932.711914	1491.459595
931.571289	1480.161987
930.431641	1514.908569
929.291016	1558.406860
928.149414	1582.163208
927.008789	1529.228394
925.867188	1533.266968
924.725586	1489.126099
923.583984	1565.421875
922.441406	1519.104248
921.299805	1542.836792
920.157227	1549.055054
919.013672	1539.958374
917.871094	1495.874390
916.727539	1528.336182
915.583984	1493.018188
914.439453	1534.207764
913.295898	1571.008667
912.151367	1478.907349
911.006836	1506.967896
909.861328	1598.337769
908.716797	1499.742920
907.571289	1564.882690
906.424805	1529.618652
905.279297	1559.817261
904.132813	1513.664673
902.986328	1607.089844
901.839844	1565.307251
900.692383	1477.771484
899.545898	1610.365601
898.398438	1551.180908
897.250000	1531.229126
896.102539	1567.905029
894.954102	1550.135376
893.805664	1621.616943
892.656250	1523.324341
891.507813	1529.508789
890.358398	1570.493530
889.208984	1565.790894
888.058594	1608.922974
886.908203	1534.654053
885.758789	1540.828369
884.607422	1577.418335
883.457031	1594.441284
882.305664	1496.352417
881.154297	1519.899536
880.002930	1510.874023
878.850586	1543.088257
877.698242	1544.910400
876.545898	1544.562256
875.393555	1544.214111
874.240234	1522.182373
873.086914	1554.357178
871.933594	1506.324463
870.780273	1618.662720
869.625977	1512.144165
868.471680	1526.964355
867.317383	1520.123535
866.162109	1491.636353
865.007813	1473.984131
863.852539	1488.798950
862.696289	1419.232056
861.541016	1455.682007
860.384766	1496.440552
859.228516	1550.152344
858.072266	1584.386230
856.915039	1488.943359
855.757813	1501.569946
854.600586	1501.230591
853.442383	1498.731567
852.285156	1476.802002
851.126953	1586.555542
849.968750	1497.714966
848.809570	1503.848999
847.650391	1535.865479
846.491211	1507.481689
845.332031	1528.701904
844.171875	1584.402710
843.012695	1551.716553
841.851563	1566.447998
840.691406	1591.943481
839.530273	1531.279297
838.369141	1468.489258
837.208008	1498.294678
836.046875	1487.193970
834.884766	1495.463867
833.722656	1462.855957
832.560547	1522.745972
831.397461	1462.192749
830.234375	1513.456177
829.071289	1467.977417
827.908203	1506.323242
826.744141	1497.388062
825.580078	1421.873779
824.416016	1473.087646
823.251953	1509.250000
822.086914	1528.224854
820.921875	1420.583130
819.756836	1461.023193
818.590820	1492.865234
817.425781	1468.937378
816.259766	1494.330933
815.092773	1485.417603
813.926758	1506.509766
812.759766	1467.602539
811.592773	1447.990967
810.424805	1531.180664
809.257813	1451.614624
808.089844	1479.111450
806.920898	1433.833984
805.752930	1551.183838
804.583984	1418.208130
803.415039	1475.627319
802.246094	1490.258179
801.076172	1451.441895
799.906250	1436.151489
798.736328	1405.911499
797.566406	1482.493042
796.395508	1514.190430
795.224609	1466.871582
794.053711	1472.941406
792.881836	1511.021606
791.710938	1433.863281
790.538086	1463.401733
789.366211	1460.935425
788.194336	1428.618408
787.021484	1453.874023
785.848633	1502.562256
784.674805	1480.911499
783.500977	1476.313110
782.327148	1499.404541
781.153320	1452.216675
779.979492	1494.462524
778.804688	1457.939087
777.629883	1461.862061
776.454102	1442.381714
775.279297	1493.098511
774.103516	1497.010376
772.927734	1456.275513
771.750977	1436.813721
770.575195	1459.860229
769.398438	1476.522705
768.220703	1457.069214
767.043945	1433.377563
765.866211	1454.280273
764.688477	1500.644043
763.510742	1472.714111
762.332031	1468.134155
761.153320	1503.857056
759.974609	1490.789429
758.794922	1435.325195
757.616211	1509.184326
756.436523	1455.860107
755.255859	1430.102905
754.076172	1484.848511
752.895508	1482.390991
751.714844	1492.637695
750.533203	1477.478882
749.352539	1455.978149
748.170898	1493.728394
746.988281	1550.498779
745.806641	1558.602905
744.624023	1581.503174
743.441406	1587.482422
742.258789	1576.551880
741.075195	1593.093506
739.891602	1639.200562
738.708008	1638.824829
737.523438	1693.345581
736.339844	1781.615967
735.155273	1861.404053
733.969727	1926.385620
732.785156	1968.133179
731.599609	1976.117676
730.414063	1933.494385
729.227539	1968.886963
728.041992	1898.886719
726.855469	1662.461426
725.667969	1695.784912
724.481445	1581.667236
723.293945	1600.254517
722.106445	1589.361572
720.918945	1584.787354
719.730469	1554.965332
718.541992	1497.809326
717.353516	1503.774780
716.164063	1476.094238
714.975586	1507.288330
713.786133	1490.128174
712.595703	1481.380737
711.406250	1512.551758
710.215820	1453.396118
709.025391	1482.459229
707.833984	1480.019165
706.642578	1464.987061
705.451172	1462.551758
704.259766	1512.564331
703.068359	1470.268677
701.875977	1400.732666
700.683594	1431.856689
699.490234	1437.815063
698.297852	1456.343384
697.104492	1462.293213
695.910156	1430.539307
694.716797	1442.774048
693.522461	1446.629028
692.328125	1433.737671
691.132813	1443.870361
689.938477	1447.722168
688.743164	1443.205566
687.547852	1495.151123
686.351563	1392.365479
685.155273	1406.675903
683.958984	1381.275635
682.762695	1441.544067
681.565430	1430.768311
680.368164	1390.762207
679.170898	1436.372192
677.973633	1436.041138
676.775391	1425.276245
675.577148	1418.688721
674.378906	1453.820679
673.179688	1428.461304
671.980469	1403.113525
670.781250	1419.465088
669.581055	1425.389404
668.381836	1497.980347
667.181641	1449.727173
665.980469	1449.392700
664.780273	1455.304199
663.579102	1482.027954
662.377930	1442.146606
661.175781	1441.813721
659.973633	1541.323853
658.771484	1480.660278
657.569336	1480.318481
656.367188	1502.841553
655.164063	1467.166138
653.960938	1450.206177
652.756836	1501.800781
651.552734	1424.615967
650.348633	1546.783936
649.144531	1484.154419
647.939453	1556.445801
646.735352	1520.814941
645.529297	1456.160156
644.324219	1515.964600
643.118164	1486.587524
641.912109	1434.422363
640.706055	1533.565308
639.499023	1454.478394
638.292969	1452.070801
637.084961	1509.721680
635.877930	1484.527100
634.669922	1413.804199
633.461914	1444.519897
632.253906	1417.288452
631.044922	1421.097900
629.836914	1433.177612
628.626953	1453.522217
627.417969	1461.454468
626.208008	1380.517334
624.998047	1380.197998
623.788086	1435.652222
622.577148	1453.906982
621.366211	1455.635254
620.155273	1492.454956
618.944336	1438.451416
617.732422	1403.042480
616.520508	1446.036987
615.308594	1410.642456
614.095703	1447.429565
612.882813	1434.726196
611.669922	1473.551270
610.457031	1427.880615
609.243164	1452.269531
608.029297	1458.111694
606.815430	1435.125000
605.600586	1471.846069
604.385742	1401.531616
603.170898	1351.825195
601.955078	1423.510498
600.740234	1357.368896
599.524414	1406.401978
598.307617	1416.354492
597.091797	1391.364014
595.875000	1384.877563
594.658203	1376.339722
593.440430	1445.848755
592.222656	1461.940063
591.004883	1418.492188
589.787109	1424.320435
588.568359	1337.812256
587.349609	1390.838257
586.130859	1404.872192
584.912109	1412.748291
583.692383	1400.121094
582.472656	1422.340820
581.251953	1403.569946
580.032227	1417.584351
578.811523	1370.150391
577.589844	1431.260132
576.369141	1392.033203
575.147461	1385.570557
573.925781	1446.634033
572.703125	1413.567505
571.481445	1392.787598
570.258789	1380.196167
569.035156	1414.628540
567.812500	1408.169067
566.588867	1366.976196
565.365234	1346.230713
564.140625	1433.740112
562.916992	1382.360229
561.692383	1390.205200
560.466797	1436.824463
559.242188	1460.976685
558.016602	1409.637817
556.791016	1415.429321
555.564453	1400.827637
554.337891	1451.466919
553.111328	1436.863403
551.884766	1397.815063
550.657227	1389.342041
549.429688	1417.533203
548.202148	1457.928467
546.974609	1479.983276
545.746094	1491.851440
544.517578	1389.765381
543.288086	1405.717407
542.058594	1425.729614
540.829102	1447.765869
539.599609	1473.857666
538.370117	1445.061401
537.139648	1465.045654
535.909180	1422.044189
534.677734	1437.962280
533.446289	1435.597900
532.214844	1354.061523
530.983398	1420.724243
529.750977	1426.481812
528.519531	1430.208008
527.286133	1435.960449
526.053711	1425.488525
524.820313	1485.975098
523.586914	1572.781616
522.353516	1669.679321
521.119141	1614.593994
519.884766	1589.914673
518.650391	1563.221802
517.415039	1506.174927
516.179688	1451.178223
514.944336	1369.901733
513.708984	1408.020996
