#Wave	#Intensity
2109.007813	8901.394531
2107.496094	8798.851563
2105.984375	8973.879883
2104.470703	8793.393555
2102.958984	8806.368164
2101.445313	8791.245117
2099.933594	8786.041992
2098.419922	8784.143555
2096.90625	8787.201172
2095.390625	8748.981445
2093.876953	8727.28418
2092.361328	8428.337891
2090.845703	8764.768555
2089.332031	8736.484375
2087.814453	8515.246094
2086.298828	8605.750977
2084.783203	8511.576172
2083.265625	8488.31543
2081.748047	8427.164063
2080.230469	8249.066406
2078.712891	8392.240234
2077.195313	8443.130859
2075.677734	8243.741211
2074.158203	8250.198242
2072.638672	8236.90332
2071.119141	8190.707031
2069.599609	8261.327148
2068.080078	8190.475098
2066.560547	8168.983398
2065.039063	8122.841309
2063.517578	8155.612305
2061.996094	8255.743164
2060.474609	8163.61084
2058.953125	8086.300781
2057.429688	8209.373047
2055.908203	8091.040039
2054.384766	7923.513184
2052.861328	8087.569336
2051.337891	8113.729004
2049.814453	8130.03418
2048.289063	8020.045898
2046.765625	8005.209473
2045.240234	8078.90625
2043.714844	8150.932129
2042.189453	8039.394531
2040.664063	8086.823242
2039.136719	7949.139648
2037.609375	8053.884277
2036.083984	8016.140625
2034.556641	7989.871582
2033.029297	8011.074707
2031.5	8006.089355
2029.972656	8009.284668
2028.443359	8020.656738
2026.914063	8063.092773
2025.386719	7940.391602
2023.855469	7928.888184
2022.326172	8021.974121
2020.796875	8069.274414
2019.265625	7938.509766
2017.734375	7912.318359
2016.203125	7824.094238
2014.671875	7814.262207
2013.140625	7874.612305
2011.607422	8050.787109
2010.076172	7915.298828
2008.542969	7923.396973
2007.009766	7955.950684
2005.476563	7781.442383
2003.943359	8037.316406
2002.408203	7960.641113
2000.875	7976.866699
1999.339844	7893.721191
1997.804688	7993.010742
1996.269531	7966.884766
1994.732422	8030.302734
1993.197266	7882.115234
1991.660156	8022.001953
1990.123047	7937.325684
1988.585938	7937.262695
1987.048828	7800.603516
1985.511719	7924.129883
1983.972656	7899.687988
1982.435547	7794.000977
1980.896484	8096.172852
1979.357422	7862.160156
1977.818359	7793.901367
1976.279297	7983.84375
1974.738281	7745.133301
1973.197266	8121.653809
1971.658203	7863.542969
1970.117188	7858.627441
1968.576172	7873.177734
1967.033203	7946.101074
1965.492188	7899.016602
1963.949219	7829.258301
1962.40625	7910.247559
1960.863281	7911.808594
1959.320313	7979.785645
1957.777344	7816.133301
1956.232422	7837.143555
1954.689453	7916.425293
1953.144531	7741.55957
1951.599609	7801.40918
1950.054688	7867.70459
1948.507813	7974.410156
1946.962891	7857.898438
1945.416016	7961.32666
1943.869141	7859.415527
1942.322266	7776.940918
1940.775391	7888.398926
1939.228516	7881.880371
1937.679688	7860.828125
1936.132813	7833.325195
1934.583984	7941.447266
1933.035156	7959.133789
1931.486328	7884.828125
1929.935547	7942.854004
1928.386719	7878.26123
1926.835938	7757.25
1925.285156	7868.474609
1923.734375	7845.851563
1922.183594	7768.439453
1920.632813	7955.324707
1919.080078	7829.59082
1917.527344	7637.872559
1915.976563	7682.955566
1914.423828	7827.839355
1912.869141	7753.747559
1911.316406	7803.60498
1909.761719	7835.741699
1908.208984	7758.477539
1906.654297	7834.03418
1905.099609	7777.706055
1903.544922	7817.858398
1901.988281	7853.171875
1900.433594	7700.458496
1898.876953	7695.616211
1897.320313	7878.708496
1895.763672	7734.115234
1894.207031	7727.662598
1892.648438	7769.370117
1891.091797	7823.898926
1889.533203	7754.852539
1887.974609	7804.54834
1886.416016	7847.807129
1884.857422	7716.260742
1883.298828	7785.17041
1881.738281	7765.893066
1880.177734	7749.829102
1878.617188	7720.953613
1877.056641	7736.941895
1875.496094	7879.442871
1873.935547	7722.463867
1872.373047	7757.650879
1870.810547	7748.009277
1869.248047	7747.972168
1867.685547	7759.133789
1866.123047	7815.075684
1864.560547	7810.226074
1862.996094	7859.737793
1861.431641	7669.45752
1859.867188	7734.958984
1858.302734	7877.126465
1856.738281	7730.09375
1855.171875	7873.798828
1853.607422	7864.151855
1852.041016	7793.843262
1850.474609	7870.40625
1848.908203	7728.316406
1847.341797	7812.837402
1845.773438	7785.665527
1844.207031	7769.668457
1842.638672	7739.327637
1841.070313	7944.924316
1839.501953	7826.902832
1837.931641	7713.710938
1836.363281	7895.285645
1834.792969	7807.610352
1833.222656	7860.103516
1831.652344	7769.287598
1830.082031	7801.07373
1828.511719	7877.404297
1826.941406	7823.236328
1825.369141	7840.672852
1823.796875	7936.030762
1822.224609	7816.690918
1820.652344	7830.9375
1819.078125	7892.859375
1817.505859	7848.288086
1815.931641	7841.864746
1814.357422	7862.446289
1812.783203	7964.008301
1811.208984	7871.827637
1809.634766	7935.247559
1808.058594	7912.94043
1806.484375	7770.053223
1804.908203	7728.753418
1803.332031	7860.347656
1801.753906	7831.730957
1800.177734	7753.97998
1798.601563	7874.38916
1797.023438	7937.698242
1795.445313	7983.552734
1793.867188	7893.161621
1792.289063	7885.159668
1790.708984	8041.82959
1789.130859	7853.334961
1787.550781	7910.23584
1785.970703	7911.729492
1784.390625	7973.338867
1782.810547	7911.55127
1781.228516	7998.435059
1779.646484	7882.913086
1778.066406	7996.637207
1776.484375	8126.116211
1774.902344	7925.318848
1773.318359	8004.20752
1771.736328	8128.86377
1770.152344	7895.032715
1768.568359	7942.303223
1766.984375	7962.722168
1765.400391	7991.021484
1763.816406	8033.507813
1762.230469	8087.01709
1760.646484	8063.22998
1759.060547	8178.199707
1757.474609	8266.323242
1755.888672	8103.823242
1754.300781	8177.742676
1752.714844	8242.178711
1751.126953	8221.536133
1749.539063	8166.259277
1747.951172	8222.783203
1746.363281	8274.561523
1744.775391	8318.449219
1743.185547	8256.90332
1741.595703	8283.47168
1740.007813	8445.27832
1738.416016	8435.630859
1736.826172	8548.603516
1735.236328	8762.116211
1733.644531	8691.123047
1732.052734	8822.821289
1730.462891	8808.389648
1728.869141	8757.845703
1727.277344	8691.62207
1725.685547	8630.134766
1724.091797	8749.149414
1722.498047	8668.84668
1720.904297	8784.664063
1719.310547	8682.430664
1717.716797	8697.84082
1716.121094	8813.577148
1714.527344	8741.180664
1712.931641	8654.709961
1711.335938	8848.71582
1709.740234	8857.806641
1708.142578	9025.063477
1706.546875	8888.501953
1704.949219	8989.933594
1703.351563	9013.070313
1701.753906	9065.926758
1700.15625	9042.104492
1698.558594	9135.59668
1696.958984	9274.395508
1695.359375	9178.626953
1693.759766	9395.509766
1692.160156	9484.157227
1690.560547	9669.633789
1688.960938	9645.71582
1687.359375	9582.763672
1685.757813	9613.521484
1684.15625	9761.345703
1682.554688	10027.722656
1680.953125	10013.113281
1679.349609	10193.518555
1677.748047	10153.922852
1676.144531	10371.646484
1674.541016	10579.922852
1672.9375	10747.582031
1671.332031	11063.219727
1669.728516	11000.106445
1668.123047	11044.504883
1666.517578	11347.416992
1664.912109	11503.832031
1663.306641	11507.617188
1661.701172	11747.978516
1660.09375	11631.888672
1658.486328	12139.712891
1656.878906	11917.817383
1655.271484	12041.250977
1653.664063	12097.775391
1652.056641	12392.106445
1650.447266	12591.509766
1648.837891	12779.951172
1647.228516	12977.631836
1645.619141	12991.958008
1644.009766	13397.583984
1642.398438	13565.508789
1640.789063	13689.900391
1639.177734	13870.103516
1637.566406	14267.436523
1635.955078	14618.06543
1634.341797	14768.488281
1632.730469	14943.65332
1631.117188	15118.743164
1629.503906	15419.293945
1627.890625	15400.517578
1626.277344	15708.624023
1624.662109	15922.118164
1623.048828	15986.864258
1621.433594	16005.134766
1619.818359	16281.888672
1618.203125	16301.634766
1616.587891	16425.033203
1614.970703	16639.642578
1613.353516	16959.324219
1611.738281	16875.306641
1610.121094	17211.804688
1608.501953	17402.875
1606.884766	17677.304688
1605.267578	17896.001953
1603.648438	17995.671875
1602.029297	17991.833984
1600.410156	18375.515625
1598.791016	18485.822266
1597.169922	18628.486328
1595.550781	18609.082031
1593.929688	18936.767578
1592.308594	19034.515625
1590.6875	19110.632813
1589.064453	19158.966797
1587.443359	19379.902344
1585.820313	19526.775391
1584.197266	19582.689453
1582.574219	19365.947266
1580.951172	19287.892578
1579.328125	19226.806641
1577.703125	19159.585938
1576.080078	19166.263672
1574.455078	19031.382813
1572.830078	19047.3125
1571.203125	19241.640625
1569.578125	19123.738281
1567.951172	19271.84375
1566.324219	19232.371094
1564.697266	19083.808594
1563.070313	19196.486328
1561.443359	19393.595703
1559.816406	19443.193359
1558.1875	19575.675781
1556.558594	19729.591797
1554.929688	19854.28125
1553.300781	19538.552734
1551.669922	19854.980469
1550.041016	19398.285156
1548.410156	19386.460938
1546.779297	19291.855469
1545.148438	19215.683594
1543.517578	18938.798828
1541.884766	18727.910156
1540.251953	18621.267578
1538.621094	18239.015625
1536.988281	17788.029297
1535.353516	17848.503906
1533.720703	17590.625
1532.085938	17556.248047
1530.453125	17431.626953
1528.818359	17138.822266
1527.183594	17113.734375
1525.546875	17025.976563
1523.912109	16938.253906
1522.275391	16923.917969
1520.640625	16828.613281
1519.003906	16670.722656
1517.365234	16661.03125
1515.728516	16339.873047
1514.091797	16473.742188
1512.453125	16261.117188
1510.814453	16249.990234
1509.175781	16132.082031
1507.537109	15966.943359
1505.896484	15682.936523
1504.257813	15697.854492
1502.617188	15459.750977
1500.976563	15485.375
1499.335938	15251.988281
1497.693359	15231.947266
1496.052734	15154.044922
1494.410156	15193.410156
1492.767578	15162.736328
1491.125	14899.225586
1489.482422	15063.383789
1487.837891	15031.232422
1486.195313	14877.420898
1484.550781	15027.789063
1482.90625	14851.238281
1481.261719	14819.155273
1479.617188	14562.185547
1477.970703	14738.314453
1476.324219	14754.87793
1474.677734	14611.979492
1473.03125	14743.949219
1471.384766	14868.271484
1469.738281	14657.144531
1468.089844	14872.46582
1466.441406	15039.150391
1464.792969	14940.350586
1463.144531	15278.288086
1461.496094	15397.777344
1459.845703	15308.054688
1458.197266	15557.800781
1456.546875	15468.079102
1454.896484	15192.09082
1453.244141	15311.461914
1451.59375	14972.036133
1449.941406	14837.103516
1448.291016	14724.927734
1446.638672	14411.566406
1444.984375	14037.832031
1443.332031	14039.326172
1441.679688	13971.264648
1440.025391	13851.833008
1438.371094	13836.737305
1436.716797	13619.165039
1435.0625	13637.359375
1433.40625	13629.869141
1431.75	13451.741211
1430.095703	13228.397461
1428.439453	13421.749023
1426.78125	13020.43457
1425.125	13050.797852
1423.466797	13133.943359
1421.810547	12809.861328
1420.152344	12870.40332
1418.494141	12964.082031
1416.833984	12816.579102
1415.175781	12904.198242
1413.515625	12976.713867
1411.855469	12982.927734
1410.195313	13014.735352
1408.535156	13023.945313
1406.875	13069.274414
1405.212891	13405.014648
1403.550781	13522.454102
1401.888672	13687.975586
1400.226563	13686.496094
1398.564453	13835.368164
1396.900391	13860.912109
1395.238281	13703.094727
1393.574219	13641.506836
1391.910156	13524.363281
1390.244141	13327.669922
1388.580078	13255.689453
1386.914063	13254.296875
1385.248047	13443.517578
1383.582031	13374.556641
1381.916016	13454.148438
1380.25	13521.705078
1378.582031	13646.213867
1376.916016	13520.291992
1375.248047	13674.723633
1373.578125	13812.602539
1371.910156	13903.97168
1370.242188	13740.650391
1368.572266	13749.624023
1366.902344	13813.993164
1365.232422	13670.254883
1363.5625	13685.220703
1361.890625	13956.047852
1360.220703	13816.856445
1358.548828	14157.828125
1356.876953	14075.473633
1355.205078	14036.508789
1353.53125	14256.135742
1351.859375	14348.647461
1350.185547	14656.254883
1348.511719	14836.761719
1346.837891	15079.910156
1345.164063	15675.304688
1343.488281	15834.567383
1341.8125	16219.107422
1340.138672	16593.03125
1338.460938	16750.492188
1336.785156	16907.880859
1335.109375	17352.974609
1333.431641	17545.9375
1331.753906	17372.171875
1330.076172	17380.271484
1328.398438	17534.361328
1326.720703	17265.386719
1325.041016	17094.808594
1323.361328	16912.392578
1321.681641	16658.611328
1320.001953	16640.060547
1318.322266	16820.880859
1316.640625	16558.357422
1314.960938	16279.589844
1313.279297	15925.116211
1311.597656	15833.90332
1309.914063	15430.637695
1308.232422	15152.358398
1306.548828	15068.798828
1304.865234	14627.350586
1303.181641	14331.609375
1301.498047	14125.068359
1299.814453	13905.258789
1298.128906	13614.320313
1296.443359	13566.806641
1294.757813	13391.758789
1293.072266	13111.501953
1291.386719	13154.5625
1289.699219	12815.191406
1288.011719	12803.46582
1286.324219	12565.06543
1284.636719	12517.847656
1282.949219	12473.612305
1281.259766	12498.981445
1279.572266	12342.267578
1277.882813	12292.176758
1276.193359	12271.698242
1274.501953	12303.001953
1272.8125	12118.366211
1271.121094	12063.928711
1269.429688	12121.862305
1267.738281	12049.709961
1266.046875	11943.603516
1264.353516	11815.382813
1262.662109	11771.405273
1260.96875	11697.913086
1259.275391	11720.413086
1257.582031	11314.867188
1255.886719	11268.083984
1254.193359	11303.9375
1252.498047	11227.675781
1250.802734	11179.464844
1249.107422	11085.569336
1247.410156	10816.306641
1245.714844	10816.847656
1244.017578	10911.682617
1242.320313	10638.21582
1240.623047	10759.554688
1238.925781	10670.288086
1237.226563	10452.993164
1235.527344	10552.212891
1233.828125	10285.010742
1232.128906	10376.866211
1230.429688	10243.657227
1228.728516	10288.425781
1227.029297	10061.208984
1225.328125	10148.619141
1223.626953	10237.458008
1221.923828	10232.235352
1220.222656	10304.857422
1218.519531	10252.628906
1216.816406	10301.722656
1215.113281	10261.258789
1213.410156	10335.273438
1211.707031	10244.935547
1210.001953	10189.839844
1208.296875	10147.966797
1206.591797	10016.675781
1204.886719	9892.772461
1203.179688	9793.835938
1201.474609	9832.667969
1199.767578	9711.81543
1198.060547	9664.241211
1196.353516	9764.568359
1194.644531	9654.055664
1192.9375	9457.244141
1191.228516	9588.274414
1189.519531	9467.632813
1187.810547	9604.450195
1186.099609	9627.15332
1184.390625	9616.22168
1182.679688	9593.601563
1180.96875	9803.325195
1179.257813	9736.844727
1177.544922	9836.896484
1175.833984	9893.09668
1174.121094	9839.776367
1172.408203	9866.756836
1170.695313	9887.886719
1168.982422	9704.756836
1167.267578	9600.472656
1165.552734	9567.688477
1163.837891	9526.171875
1162.123047	9452.604492
1160.408203	9220.225586
1158.691406	9097.222656
1156.976563	9119.936523
1155.259766	9228.560547
1153.541016	9121.650391
1151.824219	8891.058594
1150.107422	8611.089844
1148.388672	8626.607422
1146.669922	8618.842773
1144.951172	8378.388672
1143.230469	8462.28418
1141.511719	8633.361328
1139.791016	8366.90332
1138.070313	8290.910156
1136.349609	8294.847656
1134.628906	8207.285156
1132.90625	7965.844727
1131.185547	7964.044434
1129.462891	8031.909668
1127.740234	7972.051758
1126.015625	8010.868164
1124.292969	8006.155273
1122.568359	7898.48877
1120.84375	7963.388672
1119.119141	7931.148438
1117.394531	7806.180664
1115.667969	7895.683594
1113.941406	7722.980957
1112.214844	7588.006348
1110.488281	7480.599609
1108.761719	7506.404785
1107.033203	7477.207031
1105.306641	7407.512695
1103.578125	7410.171387
1101.849609	7378.121094
1100.119141	7428.494629
1098.390625	7373.325684
1096.660156	7254.595215
1094.929688	7351.194336
1093.199219	7259.966309
1091.46875	7317.526855
1089.736328	7239.34082
1088.003906	7051.483398
1086.273438	7143.686035
1084.539063	7199.774414
1082.806641	7423.168457
1081.074219	7199.382813
1079.339844	7359.231445
1077.605469	7263.856934
1075.871094	7296.791504
1074.134766	7247.580566
1072.400391	7133.566895
1070.664063	7192.430176
1068.927734	7196.550293
1067.191406	7026.481445
1065.455078	6882.39502
1063.716797	6813.196777
1061.978516	6797.256836
1060.240234	6741.052246
1058.501953	6738.075684
1056.763672	6714.973145
1055.023438	6643.01416
1053.283203	6765.072754
1051.542969	6651.472168
1049.802734	6784.961914
1048.0625	6912.646484
1046.320313	6878.046875
1044.578125	6898.003418
1042.835938	6689.791016
1041.09375	6630.875
1039.351563	6726.890625
1037.607422	6617.802734
1035.863281	6561.808594
1034.119141	6497.240234
1032.375	6553.071777
1030.628906	6532.945801
1028.884766	6597.335938
1027.138672	6537.111816
1025.392578	6670.190918
1023.646484	6630.015137
1021.898438	6731.527832
1020.152344	6762.889648
1018.404297	6609.719238
1016.65625	6725.465332
1014.90625	6608.114746
1013.158203	6875.321289
1011.408203	6792.286133
1009.658203	6674.999512
1007.908203	6664.89502
1006.158203	6613.381348
1004.40625	6678.964844
1002.65625	6601.776367
1000.904297	6584.560059
999.150391	6630.128418
997.398438	6413.212891
995.646484	6532.955078
993.892578	6478.698242
992.138672	6401.658203
990.384766	6401.608887
988.628906	6578.23291
986.875	6375.869141
985.119141	6337.372559
983.363281	6307.436035
981.607422	6432.670898
979.849609	6446.842285
978.09375	6408.362305
976.335938	6472.318359
974.578125	6375.540527
972.820313	6496.34668
971.060547	6540.334961
969.300781	6464.923828
967.542969	6601.25293
965.78125	6415.061035
964.021484	6585.421875
962.261719	6585.320313
960.5	6734.268555
958.738281	6878.890137
956.976563	6830.476563
955.214844	6745.202637
953.451172	6719.532227
951.6875	6644.24707
949.923828	6540.64502
948.160156	6441.341797
946.396484	6283.990234
944.630859	6278.285645
942.865234	6234.34375
941.099609	6323.518555
939.333984	6305.066406
937.568359	6224.350098
935.800781	6279.504883
934.033203	6220.049805
932.265625	6273.76416
930.498047	6350.07666
928.730469	6242.581055
926.960938	6282.118164
925.191406	6400.762695
923.421875	6280.614746
921.652344	6400.615723
919.880859	6345.473633
918.109375	6307.296387
916.337891	6335.469238
914.566406	6212.650391
912.794922	6146.31543
911.021484	6106.807129
909.248047	6102.566895
907.474609	6125.112305
905.701172	6081.406738
903.927734	6198.351074
902.152344	6020.819824
900.376953	6010.968262
898.601563	6029.281738
896.826172	5960.306641
895.050781	6184.102051
893.273438	6241.758301
891.496094	6064.461426
889.71875	6124.930664
887.939453	6018.046387
886.162109	5987.122559
884.382813	5928.104004
882.603516	6029.293457
880.824219	5953.434082
879.044922	5813.004883
877.263672	5747.059082
875.482422	5748.525391
873.701172	5856.65332
871.919922	5723.391113
870.138672	5830.070801
868.355469	5832.916504
866.572266	5709.566406
864.789063	5869.441895
863.005859	5751.746094
861.220703	5698.558105
859.435547	5693.022949
857.650391	5646.875488
855.865234	5677.758789
854.080078	5756.222656
852.292969	5477.768555
850.505859	5704.556641
848.71875	5547.946289
846.931641	5570.422852
845.144531	5569.118164
843.355469	5594.374023
841.566406	5548.341309
839.777344	5485.562988
837.988281	5473.102051
836.197266	5573.77002
834.408203	5646.465332
832.617188	5594.887695
830.824219	5565.663574
829.033203	5678.770996
827.240234	5656.514648
825.449219	5666.344238
823.65625	5677.563477
821.861328	5712.473633
820.068359	5748.76123
818.273438	5704.21875
816.478516	5808.746094
814.683594	5708.50293
812.888672	5625.01416
811.091797	5666.844727
809.296875	5611.237793
807.5	5541.742676
805.701172	5497.318359
803.904297	5610.0625
802.105469	5532.273438
800.308594	5639.39502
798.509766	5564.413574
796.708984	5481.130859
794.910156	5493.731445
793.109375	5502.159668
791.308594	5578.615234
789.507813	5521.77832
787.707031	5541.294434
785.904297	5545.539063
784.101563	5441.587402
782.298828	5556.794434
780.496094	5448.728516
778.693359	5408.633301
776.888672	5425.373535
775.083984	5450.418457
773.279297	5482.376465
771.474609	5427.075684
769.667969	5529.632324
767.861328	5407.905762
766.054688	5484.124512
764.248047	5426.106445
762.441406	5456.63916
760.632813	5510.665039
758.824219	5655.911621
757.015625	5856.377441
755.207031	5866.049316
753.398438	6067.750977
751.587891	6417.146973
749.777344	6586.861816
747.966797	6995.333496
746.154297	7554.058105
744.34375	7909.67041
742.53125	8164.403809
740.71875	8607.974609
738.90625	9390.553711
737.091797	10656.65332
735.277344	11971.771484
733.464844	13061.65918
731.648438	13276.234375
729.833984	12839.241211
728.019531	11395.881836
726.203125	9797.642578
724.386719	8346.049805
722.568359	7471.688477
720.751953	6817.848633
718.933594	6509.530762
717.115234	6252.234375
715.296875	6041.798828
713.478516	5889.186035
711.658203	5732.522949
709.839844	5636.377441
708.019531	5589.719238
706.197266	5673.523926
704.376953	5690.024414
702.554688	5529.474121
700.734375	5718.883789
698.910156	5599.555176
697.087891	5587.254883
695.265625	5587.300293
693.441406	5773.772461
691.617188	5729.91748
689.792969	5928.598145
687.966797	6039.515137
686.140625	5890.17627
684.316406	5961.343262
682.490234	6040.688965
680.662109	5950.300781
678.835938	6061.078613
677.007813	5910.541016
675.179688	5779.220703
673.351563	5735.463379
671.521484	5686.258789
669.693359	5723.170898
667.863281	5690.386719
666.033203	5714.986328
664.201172	5747.76709
662.371094	5676.771484
660.539063	5635.837891
658.707031	5545.797363
656.875	5592.228027
655.041016	5667.279785
653.208984	5705.476563
651.375	5717.751953
649.541016	5753.191895
647.705078	5660.523438
645.871094	5725.930664
644.035156	5727.291016
642.199219	5762.693359
640.363281	5411.44873
638.525391	5520.404297
636.689453	5463.299805
634.851563	5686.463867
633.013672	5519.180176
631.173828	5492.029785
629.335938	5493.439941
627.496094	5443.202637
625.65625	5440.546875
623.816406	5504.455566
621.974609	5475.980469
620.132813	5401.353516
618.292969	5355.268555
616.449219	5375.706055
614.607422	5440.908691
612.763672	5289.038574
610.921875	5295.914063
609.078125	5282.447754
607.232422	5251.365234
605.388672	5199.969238
603.542969	5010.397949
601.697266	5131.11377
599.851563	5174.579102
598.005859	5150.327637
596.158203	5215.424316
594.310547	5096.444336
592.462891	5280.582031
590.615234	5230.626465
588.765625	5303.754395
586.916016	5317.359375
585.066406	5275.539551
583.216797	5401.305664
581.367188	5356.782715
579.515625	5223.134766
577.664063	5162.470703
575.8125	5211.188965
573.960938	5143.807129
572.107422	5228.939941
570.253906	5210.151855
568.400391	5183.280273
566.546875	5238.675781
564.693359	5267.082031
562.837891	5156.651855
560.982422	5218.75
559.126953	5177.087402
557.269531	5054.635254
555.414063	5189.42334
553.556641	4913.561523
551.699219	4866.627441
549.841797	4792.804199
547.982422	4745.92041
546.123047	4709.817871
544.263672	4718.103516
542.404297	4844.678223
540.544922	4659.400879
538.683594	4843.704102
536.822266	4737.768555
534.960938	4830.642578
533.099609	4724.760254
531.236328	4734.368164
529.373047	4741.287109
527.509766	4599.275879
525.646484	4795.354492
523.783203	5031.570313
521.917969	5374.929688
520.052734	5983.522461
518.1875	5649.751953
516.320313	5089.722168
514.455078	4813.919922
512.587891	4708.316406
510.720703	4559.921875
508.853516	4635.123047
506.984375	4559.07666
505.115234	4604.808594
503.246094	4671.918945
501.376953	4571.848145
499.507813	4614.869629
497.636719	4554.956055
495.765625	4556.537598
493.894531	4447.237305
492.021484	4422.131836
490.150391	4571.95752
488.277344	4560.182617
486.404297	4636.498535
484.53125	4640.725098
482.65625	4766.342285
480.78125	4678.511719
478.90625	4604.056641
477.03125	4644.277344
475.15625	4643.164551
473.279297	4671.364258
471.402344	4639.607422
469.525391	4655.808594
467.648438	4654.692871
465.769531	4511.147949
463.890625	4507.405273
462.011719	4474.393555
460.132813	4425.435547
458.251953	4454.961426
456.371094	4330.248535
454.490234	4406.304199
452.609375	4459.732422
450.728516	4483.90625
448.845703	4364.617676
446.962891	4432.624023
445.080078	4362.525879
443.197266	4374.753418
441.3125	4331.241699
439.427734	4470.829102
437.542969	4451.188477
435.658203	4485.924316
433.771484	4470.266602
431.886719	4532.813477
430	4468.123535
428.111328	4411.413574
426.224609	4409.031738
424.335938	4331.17627
422.447266	4367.20459
420.558594	4243.074219
418.669922	4287.044922
416.779297	4303.214355
414.888672	4214.895996
412.998047	4217.852539
411.107422	4276.327148
409.214844	4287.196289
407.324219	4358.838379
405.431641	4463.469238
403.537109	4420.13916
401.644531	4293.650391
399.75	4392.941406
