#Wave		#Intensity
1585.210938	24439.464844
1584.209961	24604.308594
1583.208984	24449.384766
1582.208008	24486.761719
1581.206055	24217.101563
1580.204102	23952.544922
1579.202148	24072.335938
1578.200195	24279.384766
1577.198242	24314.259766
1576.195313	24189.535156
1575.192383	24418.865234
1574.189453	23900.357422
1573.186523	23840.583984
1572.182617	23997.589844
1571.178711	23878.037109
1570.174805	23601.636719
1569.170898	23432.416016
1568.166992	23756.162109
1567.162109	23626.798828
1566.158203	23544.767578
1565.153320	23671.746094
1564.147461	23395.726563
1563.142578	23507.761719
1562.136719	23291.558594
1561.130859	23617.343750
1560.125000	23759.083984
1559.119141	23838.644531
1558.113281	23605.160156
1557.106445	24149.173828
1556.099609	24191.353516
1555.092773	24667.986328
1554.084961	24925.990234
1553.078125	25171.476563
1552.070313	25392.048828
1551.062500	25622.451172
1550.054688	25741.152344
1549.045898	25939.150391
1548.038086	26625.447266
1547.029297	27142.914063
1546.020508	27484.222656
1545.011719	27748.585938
1544.001953	28656.869141
1542.992188	28829.246094
1541.982422	29415.044922
1540.972656	30161.505859
1539.962891	29984.488281
1538.952148	30527.613281
1537.942383	30558.402344
1536.931641	30663.380859
1535.919922	30397.373047
1534.909180	30445.474609
1533.897461	29974.449219
1532.886719	29785.359375
1531.874023	29364.083984
1530.862305	29039.324219
1529.850586	28410.904297
1528.837891	27777.804688
1527.825195	27468.386719
1526.812500	26435.871094
1525.799805	26418.058594
1524.786133	26128.847656
1523.772461	25491.935547
1522.758789	25395.404297
1521.745117	25030.140625
1520.731445	24771.035156
1519.716797	24701.822266
1518.702148	24060.931641
1517.687500	24312.177734
1516.672852	24228.318359
1515.657227	24055.835938
1514.642578	24368.480469
1513.626953	24343.740234
1512.610352	24031.048828
1511.594727	24149.105469
1510.579102	24114.582031
1509.562500	24006.283203
1508.545898	24237.388672
1507.529297	24121.728516
1506.511719	24047.906250
1505.494141	24246.906250
1504.477539	23998.630859
1503.458984	24190.187500
1502.441406	24249.035156
1501.423828	24361.878906
1500.405273	24005.755859
1499.386719	24076.875000
1498.368164	23973.722656
1497.348633	23841.171875
1496.330078	24128.144531
1495.310547	24189.363281
1494.291016	24287.335938
1493.271484	24164.630859
1492.250977	24147.367188
1491.231445	24250.185547
1490.210938	24416.660156
1489.190430	24406.701172
1488.168945	24120.009766
1487.148438	24550.837891
1486.126953	24543.302734
1485.105469	24347.312500
1484.083984	24582.066406
1483.061523	24525.595703
1482.040039	24373.755859
1481.017578	24723.289063
1479.995117	24615.476563
1478.971680	24947.703125
1477.949219	25274.902344
1476.925781	25499.339844
1475.902344	25523.367188
1474.878906	25669.501953
1473.855469	25883.949219
1472.831055	26567.048828
1471.806641	26915.464844
1470.782227	27144.156250
1469.757813	27550.861328
1468.733398	28079.363281
1467.708008	28310.107422
1466.682617	29238.117188
1465.657227	29612.353516
1464.631836	30193.605469
1463.605469	30796.544922
1462.579102	31725.699219
1461.552734	32486.396484
1460.526367	32866.867188
1459.500000	33984.921875
1458.472656	34698.421875
1457.445313	34632.808594
1456.417969	35087.941406
1455.390625	35209.593750
1454.362305	34545.570313
1453.334961	34810.757813
1452.306641	34188.421875
1451.277344	33510.433594
1450.249023	32832.722656
1449.219727	32247.625000
1448.191406	31762.365234
1447.162109	30704.125000
1446.131836	29796.871094
1445.102539	29433.806641
1444.072266	28721.369141
1443.041992	27861.195313
1442.011719	27637.046875
1440.981445	27221.359375
1439.950195	26691.857422
1438.918945	26679.035156
1437.887695	26159.560547
1436.856445	26493.441406
1435.825195	25811.863281
1434.792969	25753.197266
1433.760742	25648.533203
1432.728516	25536.648438
1431.696289	25252.902344
1430.663086	24986.218750
1429.629883	25177.056641
1428.596680	24850.003906
1427.563477	24467.445313
1426.530273	24624.406250
1425.496094	24413.740234
1424.461914	24026.671875
1423.427734	23760.621094
1422.393555	24038.423828
1421.358398	23726.572266
1420.323242	23818.259766
1419.288086	23682.884766
1418.252930	23716.589844
1417.217773	23535.419922
1416.181641	23593.275391
1415.145508	23653.517578
1414.109375	23761.986328
1413.073242	23851.111328
1412.036133	23814.792969
1411.000000	23616.943359
1409.962891	23802.462891
1408.924805	24149.382813
1407.887695	24399.771484
1406.849609	24669.326172
1405.812500	25162.769531
1404.773438	25309.236328
1403.735352	25539.908203
1402.697266	25794.552734
1401.658203	26260.869141
1400.619141	26402.167969
1399.580078	26423.125000
1398.540039	26552.300781
1397.500977	26931.500000
1396.460938	26949.925781
1395.420898	26913.058594
1394.380859	26554.189453
1393.339844	26272.351563
1392.298828	26516.689453
1391.257813	26619.228516
1390.216797	26258.312500
1389.175781	26348.855469
1388.133789	26388.958984
1387.091797	26208.281250
1386.049805	26257.988281
1385.007813	26166.158203
1383.964844	26594.748047
1382.922852	27150.228516
1381.879883	26969.572266
1380.835938	27261.115234
1379.792969	27473.464844
1378.749023	27759.986328
1377.706055	27490.726563
1376.661133	28047.708984
1375.617188	28216.617188
1374.573242	27976.148438
1373.528320	28135.423828
1372.483398	28103.224609
1371.438477	28231.304688
1370.392578	28325.849609
1369.347656	28358.183594
1368.301758	28168.177734
1367.255859	28293.740234
1366.208984	28199.408203
1365.163086	28554.259766
1364.116211	28677.267578
1363.069336	28375.146484
1362.022461	28705.857422
1360.974609	28649.720703
1359.927734	28696.228516
1358.879883	28773.732422
1357.832031	29042.050781
1356.783203	29267.322266
1355.735352	28893.968750
1354.686523	29617.445313
1353.637695	29997.380859
1352.588867	30288.982422
1351.539063	30401.765625
1350.490234	31198.158203
1349.440430	31665.554688
1348.390625	32130.373047
1347.339844	32771.160156
1346.290039	33330.750000
1345.239258	33882.964844
1344.188477	34185.140625
1343.137695	34698.882813
1342.085938	35576.253906
1341.034180	35804.171875
1339.982422	36302.984375
1338.930664	36544.910156
1337.878906	36955.433594
1336.826172	36847.902344
1335.773438	37127.554688
1334.720703	37072.269531
1333.667969	37005.132813
1332.614258	36840.703125
1331.561523	36360.718750
1330.507813	36367.316406
1329.453125	36392.886719
1328.399414	35000.222656
1327.344727	34959.671875
1326.290039	34352.558594
1325.235352	34191.281250
1324.180664	34032.437500
1323.125000	33125.019531
1322.070313	33473.347656
1321.014648	33246.074219
1319.958008	32976.273438
1318.902344	32962.238281
1317.845703	33191.964844
1316.789063	32134.419922
1315.732422	31704.210938
1314.675781	31465.753906
1313.618164	31132.812500
1312.560547	30809.462891
1311.502930	30082.066406
1310.445313	29385.693359
1309.386719	28906.976563
1308.329102	28430.820313
1307.270508	28250.068359
1306.210938	27217.015625
1305.152344	26892.591797
1304.092773	26438.494141
1303.033203	26246.507813
1301.973633	25882.382813
1300.914063	25820.316406
1299.853516	25616.787109
1298.792969	25587.806641
1297.732422	25570.625000
1296.671875	25268.289063
1295.611328	25482.082031
1294.549805	25047.970703
1293.488281	25325.306641
1292.426758	25279.931641
1291.364258	25321.679688
1290.302734	25000.937500
1289.240234	25047.429688
1288.177734	25063.312500
1287.114258	25041.554688
1286.051758	25000.988281
1284.988281	24875.792969
1283.924805	24814.119141
1282.861328	24846.478516
1281.796875	24916.417969
1280.732422	25155.468750
1279.667969	25133.708984
1278.603516	25177.707031
1277.539063	24930.564453
1276.473633	25354.835938
1275.408203	25394.058594
1274.342773	25093.058594
1273.277344	25493.562500
1272.210938	25492.857422
1271.145508	25637.523438
1270.079102	25559.423828
1269.011719	25293.853516
1267.945313	25492.361328
1266.877930	25390.908203
1265.810547	25123.193359
1264.743164	24846.224609
1263.674805	24520.203125
1262.607422	24358.173828
1261.539063	23784.320313
1260.470703	23830.753906
1259.401367	23612.824219
1258.333008	23584.427734
1257.263672	23455.496094
1256.194336	23338.304688
1255.125000	22840.179688
1254.054688	22954.511719
1252.985352	22687.970703
1251.915039	22365.482422
1250.843750	22201.931641
1249.773438	22071.136719
1248.702148	22285.876953
1247.630859	21956.738281
1246.559570	21854.074219
1245.488281	21861.093750
1244.416016	21508.927734
1243.343750	21588.302734
1242.271484	21509.109375
1241.199219	21639.726563
1240.125977	21297.220703
1239.053711	21339.289063
1237.980469	21416.277344
1236.906250	21439.667969
1235.833008	21474.687500
1234.758789	21409.591797
1233.684570	21183.933594
1232.610352	21416.765625
1231.536133	21193.523438
1230.460938	21484.400391
1229.385742	21537.958984
1228.310547	21093.960938
1227.235352	21335.855469
1226.159180	21510.251953
1225.083008	21519.607422
1224.006836	21607.937500
1222.930664	21487.207031
1221.853516	21661.414063
1220.777344	21707.867188
1219.700195	21519.880859
1218.622070	22097.724609
1217.544922	21735.734375
1216.466797	21912.013672
1215.388672	22310.837891
1214.310547	22746.585938
1213.232422	22498.339844
1212.153320	22736.871094
1211.074219	22562.873047
1209.995117	23229.837891
1208.916016	23065.070313
1207.835938	23085.611328
1206.755859	23057.525391
1205.675781	23457.636719
1204.595703	23230.474609
1203.514648	22915.494141
1202.434570	23072.505859
1201.353516	22882.566406
1200.271484	22771.316406
1199.190430	22514.484375
1198.108398	22706.103516
1197.026367	22631.925781
1195.944336	22476.925781
1194.862305	22266.560547
1193.779297	22160.193359
1192.696289	21903.810547
1191.613281	21753.707031
1190.530273	21472.134766
1189.446289	21426.003906
1188.362305	21338.373047
1187.278320	20874.882813
1186.194336	20775.876953
1185.109375	20713.792969
1184.024414	20766.964844
1182.939453	20633.476563
1181.854492	20767.267578
1180.768555	20693.716797
1179.683594	20412.955078
1178.597656	20611.162109
1177.510742	20376.570313
1176.424805	20250.232422
1175.337891	20128.548828
1174.250977	20213.929688
1173.164063	20044.009766
1172.077148	20175.353516
1170.989258	20306.638672
1169.901367	20083.943359
1168.813477	19990.013672
1167.724609	20137.330078
1166.636719	20247.833984
1165.547852	20541.986328
1164.458984	20516.904297
1163.369141	20308.210938
1162.280273	20331.376953
1161.190430	20590.837891
1160.100586	20749.259766
1159.010742	20912.197266
1157.919922	20937.498047
1156.829102	20749.605469
1155.738281	21038.480469
1154.647461	20919.380859
1153.555664	21100.425781
1152.464844	21121.068359
1151.373047	20995.154297
1150.280273	21018.097656
1149.188477	20931.166016
1148.095703	21041.064453
1147.002930	20505.750000
1145.910156	20727.769531
1144.817383	20581.509766
1143.723633	20366.722656
1142.629883	20259.460938
1141.536133	20051.687500
1140.441406	20275.841797
1139.347656	20122.976563
1138.252930	20018.136719
1137.158203	20137.111328
1136.062500	19909.035156
1134.967773	19813.435547
1133.872070	19749.820313
1132.776367	19843.648438
1131.679688	19818.826172
1130.583984	19942.240234
1129.487305	20095.238281
1128.390625	20204.859375
1127.292969	19890.550781
1126.196289	19943.203125
1125.098633	19856.876953
1124.000977	20007.443359
1122.903320	19975.785156
1121.804688	19962.349609
1120.706055	20008.093750
1119.607422	19830.820313
1118.508789	19587.646484
1117.409180	19642.535156
1116.310547	19799.728516
1115.210938	19634.013672
1114.110352	19907.060547
1113.010742	19893.650391
1111.910156	19380.396484
1110.809570	19557.912109
1109.708984	19873.880859
1108.607422	19458.595703
1107.506836	19629.164063
1106.405273	19334.394531
1105.303711	19489.027344
1104.201172	19208.025391
1103.098633	19199.314453
1101.996094	19419.630859
1100.893555	19521.960938
1099.791016	19429.316406
1098.687500	18926.544922
1097.583984	19411.800781
1096.480469	19244.486328
1095.376953	19539.228516
1094.272461	19202.146484
1093.167969	19639.376953
1092.063477	19241.310547
1090.958008	19497.324219
1089.853516	19612.970703
1088.748047	19771.537109
1087.642578	19932.294922
1086.536133	20040.984375
1085.430664	20355.300781
1084.324219	20057.101563
1083.217773	20346.423828
1082.110352	20533.976563
1081.003906	20827.580078
1079.896484	21236.199219
1078.789063	21084.843750
1077.680664	21091.525391
1076.573242	21299.005859
1075.464844	21269.541016
1074.356445	21224.300781
1073.247070	21131.726563
1072.138672	21311.960938
1071.029297	20917.398438
1069.919922	20818.187500
1068.809570	20644.673828
1067.700195	20579.347656
1066.589844	20491.529297
1065.479492	20158.353516
1064.368164	20460.056641
1063.257813	20199.039063
1062.146484	19877.390625
1061.035156	19902.279297
1059.922852	19520.113281
1058.811523	19605.773438
1057.699219	19383.433594
1056.586914	19206.138672
1055.473633	19037.908203
1054.361328	19137.070313
1053.248047	18885.824219
1052.134766	18904.138672
1051.021484	19079.585938
1049.907227	19035.001953
1048.792969	18721.164063
1047.678711	18712.568359
1046.564453	18903.599609
1045.449219	18951.025391
1044.333984	18964.800781
1043.218750	18761.146484
1042.103516	18956.472656
1040.987305	18616.236328
1039.871094	19004.146484
1038.754883	18856.640625
1037.638672	19132.373047
1036.521484	18640.169922
1035.404297	18980.728516
1034.287109	18996.693359
1033.169922	18755.388672
1032.051758	19019.648438
1030.933594	18773.968750
1029.815430	18825.726563
1028.697266	18832.759766
1027.578125	19058.775391
1026.458984	18728.400391
1025.339844	18878.394531
1024.220703	18959.095703
1023.100586	18870.078125
1021.980469	18821.279297
1020.860352	18995.662109
1019.740234	19143.191406
1018.619141	19076.513672
1017.498047	18996.480469
1016.376953	18876.349609
1015.255859	18713.914063
1014.133789	18754.359375
1013.011719	18707.884766
1011.889648	18966.623047
1010.767578	18877.802734
1009.644531	18969.382813
1008.521484	18742.572266
1007.398438	18969.908203
1006.274414	18829.978516
1005.151367	18621.140625
1004.027344	18921.748047
1002.902344	18659.609375
1001.778320	18977.859375
1000.653320	19240.396484
999.528320	18980.578125
998.403320	18885.287109
997.278320	19227.632813
996.152344	19032.386719
995.026367	19285.732422
993.900391	19168.251953
992.773438	19188.421875
991.646484	19237.423828
990.519531	19337.425781
989.392578	19490.611328
988.265625	19732.421875
987.137695	19663.759766
986.009766	19850.011719
984.881836	20049.472656
983.752930	19881.087891
982.624023	19788.082031
981.495117	19741.619141
980.366211	19810.298828
979.236328	19819.185547
978.106445	19569.148438
976.976563	19401.082031
975.846680	19339.263672
974.715820	19135.937500
973.585938	19286.457031
972.454102	19120.806641
971.323242	18964.068359
970.191406	18893.568359
969.060547	18842.980469
967.927734	18814.498047
966.795898	18960.462891
965.663086	18576.546875
964.530273	19093.281250
963.397461	18914.716797
962.264648	18899.478516
961.130859	19049.664063
959.997070	18988.091797
958.863281	18975.044922
957.729492	18757.021484
956.594727	18871.841797
955.459961	18878.654297
954.325195	18955.945313
953.189453	18975.947266
952.053711	18606.242188
950.917969	18643.917969
949.782227	18595.748047
948.646484	18719.212891
947.509766	18547.861328
946.373047	18620.697266
945.235352	18735.273438
944.098633	18566.226563
942.960938	18715.925781
941.823242	18650.224609
940.685547	18610.914063
939.546875	18883.488281
938.408203	18914.404297
937.269531	18899.203125
936.129883	19044.226563
934.991211	19149.687500
933.851563	19149.794922
932.711914	19169.642578
931.571289	19296.925781
930.431641	19408.806641
929.291016	19169.937500
928.149414	19159.076172
927.008789	19413.314453
925.867188	19538.203125
924.725586	19100.232422
923.583984	18982.107422
922.441406	19255.851563
921.299805	18982.363281
920.157227	19015.308594
919.013672	18868.865234
917.871094	18770.599609
916.727539	18598.037109
915.583984	18287.833984
914.439453	18156.976563
913.295898	18364.851563
912.151367	18074.564453
911.006836	18059.589844
909.861328	18193.101563
908.716797	17948.888672
907.571289	18034.345703
906.424805	18152.494141
905.279297	18089.517578
904.132813	18192.330078
902.986328	17961.464844
901.839844	17907.289063
900.692383	17988.271484
899.545898	17866.558594
898.398438	18132.695313
897.250000	18113.373047
896.102539	18396.751953
894.954102	18026.855469
893.805664	18125.105469
892.656250	18225.488281
891.507813	17773.197266
890.358398	18001.945313
889.208984	17758.677734
888.058594	17900.355469
886.908203	18109.353516
885.758789	17868.394531
884.607422	17946.935547
883.457031	17979.824219
882.305664	17815.064453
881.154297	17908.759766
880.002930	17889.529297
878.850586	17902.861328
877.698242	18183.074219
876.545898	17920.826172
875.393555	17723.759766
874.240234	17904.074219
873.086914	17765.630859
871.933594	17631.582031
870.780273	17742.449219
869.625977	17344.164063
868.471680	17563.337891
867.317383	17678.472656
866.162109	17715.617188
865.007813	17549.285156
863.852539	17675.160156
862.696289	17504.582031
861.541016	17385.992188
860.384766	17669.675781
859.228516	17302.468750
858.072266	17430.410156
856.915039	17441.599609
855.757813	17266.974609
854.600586	17319.232422
853.442383	17280.763672
852.285156	17475.490234
851.126953	17473.697266
849.968750	17458.955078
848.809570	17517.574219
847.650391	17530.869141
846.491211	17388.876953
845.332031	17507.841797
844.171875	17245.199219
843.012695	17308.105469
841.851563	17293.412109
840.691406	17384.281250
839.530273	17554.792969
838.369141	17488.373047
837.208008	17454.271484
836.046875	17508.427734
834.884766	17383.960938
833.722656	17547.818359
832.560547	17376.080078
831.397461	17395.792969
830.234375	17368.199219
829.071289	17465.277344
827.908203	17414.041016
826.744141	17420.832031
825.580078	17603.742188
824.416016	17546.062500
823.251953	17413.267578
822.086914	17377.119141
820.921875	17482.613281
819.756836	17482.933594
818.590820	17300.935547
817.425781	17284.138672
816.259766	17638.250000
815.092773	17507.779297
813.926758	17480.226563
812.759766	17264.148438
811.592773	17303.064453
810.424805	17504.714844
809.257813	17192.425781
808.089844	17267.716797
806.920898	17445.693359
805.752930	17234.187500
804.583984	17138.285156
803.415039	17119.416016
802.246094	17335.744141
801.076172	17280.496094
799.906250	17404.789063
798.736328	17477.746094
797.566406	17221.699219
796.395508	17538.126953
795.224609	17075.068359
794.053711	17466.097656
792.881836	17526.144531
791.710938	17549.888672
790.538086	17780.544922
789.366211	17891.660156
788.194336	18090.146484
787.021484	18160.634766
785.848633	18361.097656
784.674805	18361.171875
783.500977	18156.734375
782.327148	18137.681641
781.153320	18231.494141
779.979492	17969.742188
778.804688	18061.417969
777.629883	17921.109375
776.454102	17953.185547
775.279297	17815.089844
774.103516	17736.595703
772.927734	17781.443359
771.750977	17722.119141
770.575195	17817.945313
769.398438	17930.720703
768.220703	17909.632813
767.043945	18113.644531
765.866211	18107.380859
764.688477	18345.212891
763.510742	18661.451172
762.332031	18674.158203
761.153320	19002.898438
759.974609	19161.839844
758.794922	20013.988281
757.616211	20573.234375
756.436523	21454.333984
755.255859	22324.435547
754.076172	24164.267578
752.895508	25855.015625
751.714844	28036.181641
750.533203	30842.900391
749.352539	33178.523438
748.170898	35616.750000
746.988281	37859.246094
745.806641	39199.812500
744.624023	39590.437500
743.441406	39788.523438
742.258789	39109.476563
741.075195	38044.085938
739.891602	37783.996094
738.708008	36681.375000
737.523438	36282.359375
736.339844	36084.058594
735.155273	35822.531250
733.969727	34784.660156
732.785156	33886.484375
731.599609	32311.738281
730.414063	30505.775391
729.227539	28704.855469
728.041992	26774.091797
726.855469	25057.023438
725.667969	23422.898438
724.481445	21985.384766
723.293945	20860.160156
722.106445	20166.998047
720.918945	19583.593750
719.730469	19057.267578
718.541992	18880.390625
717.353516	18447.005859
716.164063	18346.042969
714.975586	18255.636719
713.786133	17742.824219
712.595703	17850.113281
711.406250	17280.904297
710.215820	17512.164063
709.025391	17216.265625
707.833984	17732.939453
706.642578	17388.849609
705.451172	17521.244141
704.259766	17443.789063
703.068359	17643.224609
701.875977	17356.083984
700.683594	17702.193359
699.490234	17825.972656
698.297852	18419.076172
697.104492	18739.560547
695.910156	19279.814453
694.716797	19941.273438
693.522461	20146.035156
692.328125	20260.701172
691.132813	20576.199219
689.938477	20316.228516
688.743164	20050.099609
687.547852	19727.630859
686.351563	19415.763672
685.155273	19091.496094
683.958984	18882.310547
682.762695	18539.509766
681.565430	18719.044922
680.368164	18282.466797
679.170898	18148.814453
677.973633	18059.052734
676.775391	17935.943359
675.577148	18063.246094
674.378906	17883.871094
673.179688	17652.445313
671.980469	17779.720703
670.781250	17925.697266
669.581055	17586.054688
668.381836	17500.744141
667.181641	17477.960938
665.980469	17482.257813
664.780273	17276.273438
663.579102	17151.558594
662.377930	17270.380859
661.175781	17251.832031
659.973633	17148.007813
658.771484	17081.662109
657.569336	17320.972656
656.367188	17146.527344
655.164063	17240.242188
653.960938	17589.462891
652.756836	17784.810547
651.552734	18245.882813
650.348633	18403.615234
649.144531	18380.681641
647.939453	18671.123047
646.735352	18542.324219
645.529297	18811.847656
644.324219	18981.701172
643.118164	18954.509766
641.912109	18693.093750
640.706055	18496.041016
639.499023	18489.695313
638.292969	18286.564453
637.084961	18282.335938
635.877930	17787.408203
634.669922	17818.486328
633.461914	17284.570313
632.253906	17384.025391
631.044922	17206.248047
629.836914	17158.837891
628.626953	17280.994141
627.417969	16890.445313
626.208008	16913.404297
624.998047	16866.101563
623.788086	16680.419922
622.577148	16885.146484
621.366211	16635.537109
620.155273	16710.128906
618.944336	16590.691406
617.732422	16403.216797
616.520508	16453.054688
615.308594	16461.621094
614.095703	16183.582031
612.882813	16418.957031
611.669922	16186.394531
610.457031	16120.833984
609.243164	16205.679688
608.029297	16158.677734
606.815430	15996.393555
605.600586	16229.418945
604.385742	16077.481445
603.170898	16211.615234
601.955078	16179.060547
600.740234	16477.636719
599.524414	16099.601563
598.307617	16515.228516
597.091797	16297.662109
595.875000	16419.222656
594.658203	16209.995117
593.440430	16224.723633
592.222656	16208.643555
591.004883	16278.789063
589.787109	16102.620117
588.568359	16072.213867
587.349609	16138.236328
586.130859	16003.237305
584.912109	16042.586914
583.692383	16108.567383
582.472656	16086.387695
581.251953	16183.059570
580.032227	16193.647461
578.811523	16124.355469
577.589844	16179.996094
576.369141	16344.107422
575.147461	16459.021484
573.925781	16848.068359
572.703125	16594.587891
571.481445	17014.097656
570.258789	17363.890625
569.035156	17429.369141
567.812500	17460.070313
566.588867	17987.281250
565.365234	18015.794922
564.140625	18128.031250
562.916992	18417.857422
561.692383	18276.810547
560.466797	18192.972656
559.242188	18082.648438
558.016602	17958.091797
556.791016	17784.644531
555.564453	17580.691406
554.337891	17146.472656
553.111328	16773.597656
551.884766	16459.984375
550.657227	16472.462891
549.429688	16126.476563
548.202148	16075.901367
546.974609	16147.493164
545.746094	15984.994141
544.517578	15889.718750
543.288086	16158.629883
542.058594	15979.968750
540.829102	15878.657227
539.599609	16033.538086
538.370117	15865.189453
537.139648	15766.003906
535.909180	15616.077148
534.677734	15693.693359
533.446289	15826.096680
532.214844	15682.347656
530.983398	15585.344727
529.750977	15656.804688
528.519531	15724.172852
527.286133	15479.166992
526.053711	15605.347656
524.820313	15536.852539
523.586914	15444.067383
522.353516	15598.533203
521.119141	15684.048828
519.884766	15372.550781
518.650391	15561.346680
517.415039	15403.876953
516.179688	15592.576172
514.944336	15682.036133
513.708984	15504.416016
