#Wave		#Intensity
2109.224609	18559.169922
2107.712891	18674.947266
2106.201172	18775.085938
2104.687500	18749.533203
2103.175781	18562.009766
2101.662109	18799.269531
2100.150391	18786.947266
2098.636719	18796.103516
2097.123047	18839.937500
2095.607422	18776.429688
2094.093750	18709.650391
2092.578125	18581.832031
2091.064453	18648.777344
2089.548828	18766.832031
2088.033203	18742.994141
2086.517578	18714.218750
2085.000000	18627.755859
2083.484375	18595.720703
2081.966797	18430.220703
2080.449219	18706.335938
2078.931641	18504.644531
2077.414063	18671.933594
2075.894531	18664.623047
2074.376953	18505.871094
2072.857422	18737.238281
2071.337891	18539.046875
2069.818359	18656.796875
2068.298828	18753.115234
2066.777344	18951.343750
2065.257813	18636.552734
2063.736328	18637.480469
2062.214844	18764.943359
2060.693359	18700.125000
2059.171875	18520.353516
2057.648438	18797.203125
2056.126953	18729.136719
2054.603516	18772.722656
2053.080078	18811.367188
2051.556641	18666.222656
2050.033203	18760.650391
2048.507813	18643.458984
2046.984375	18878.873047
2045.458984	18853.515625
2043.933594	18605.253906
2042.408203	18860.189453
2040.882813	18913.494141
2039.355469	18829.181641
2037.830078	18638.457031
2036.302734	18688.500000
2034.775391	18700.871094
2033.248047	18678.869141
2031.718750	18920.316406
2030.191406	18788.667969
2028.662109	18868.066406
2027.134766	18883.656250
2025.605469	18891.064453
2024.076172	18785.687500
2022.544922	18732.648438
2021.015625	18887.128906
2019.484375	18775.287109
2017.955078	18846.402344
2016.423828	18623.585938
2014.892578	18773.060547
2013.359375	18808.224609
2011.828125	18778.103516
2010.294922	18870.349609
2008.761719	18848.382813
2007.230469	18637.265625
2005.695313	18882.734375
2004.162109	18604.869141
2002.628906	18661.201172
2001.093750	18826.671875
1999.558594	18645.103516
1998.023438	18761.648438
1996.488281	18760.908203
1994.953125	18750.402344
1993.417969	18909.166016
1991.880859	18950.703125
1990.343750	19016.625000
1988.806641	18825.525391
1987.269531	18990.642578
1985.732422	18822.390625
1984.193359	18920.792969
1982.656250	18716.875000
1981.117188	18608.906250
1979.578125	18713.787109
1978.039063	18945.304688
1976.500000	18812.998047
1974.958984	18852.832031
1973.417969	18923.486328
1971.878906	18666.318359
1970.337891	18780.787109
1968.796875	18703.804688
1967.253906	18636.583984
1965.712891	18728.285156
1964.169922	18878.304688
1962.626953	18895.365234
1961.083984	18990.191406
1959.541016	19060.679688
1957.998047	18891.429688
1956.455078	18670.435547
1954.910156	18855.890625
1953.365234	18869.693359
1951.820313	18928.802734
1950.275391	19080.105469
1948.730469	19051.794922
1947.183594	18827.810547
1945.638672	18733.271484
1944.091797	18680.802734
1942.544922	18650.982422
1940.998047	18745.595703
1939.449219	18696.386719
1937.902344	18997.691406
1936.353516	18635.171875
1934.804688	18845.951172
1933.255859	18856.484375
1931.707031	18605.576172
1930.158203	18637.130859
1928.607422	18712.224609
1927.058594	18603.429688
1925.507813	18755.896484
1923.957031	18779.330078
1922.406250	18913.964844
1920.853516	18542.556641
1919.302734	18767.402344
1917.750000	18773.093750
1916.197266	18591.976563
1914.644531	18699.134766
1913.091797	18540.644531
1911.539063	18585.000000
1909.984375	18568.195313
1908.431641	18855.439453
1906.876953	18782.289063
1905.322266	18767.060547
1903.767578	18788.812500
1902.210938	18368.539063
1900.656250	18528.566406
1899.099609	18614.619141
1897.542969	18721.517578
1895.986328	18780.189453
1894.429688	18850.078125
1892.873047	18433.531250
1891.314453	18822.845703
1889.755859	18714.566406
1888.199219	18901.517578
1886.640625	18676.179688
1885.080078	18699.492188
1883.521484	18709.968750
1881.960938	18664.337891
1880.402344	18440.839844
1878.841797	18613.187500
1877.281250	18495.517578
1875.720703	18650.164063
1874.158203	18444.468750
1872.597656	18394.144531
1871.035156	18572.720703
1869.472656	18578.396484
1867.910156	18651.265625
1866.347656	18498.568359
1864.783203	18464.275391
1863.220703	18350.052734
1861.656250	18624.318359
1860.091797	18537.277344
1858.527344	18510.992188
1856.962891	18693.990234
1855.396484	18728.373047
1853.832031	18710.044922
1852.265625	18484.179688
1850.699219	18614.353516
1849.132813	18621.591797
1847.566406	18636.804688
1845.998047	18525.994141
1844.431641	18592.251953
1842.863281	18674.427734
1841.294922	18603.529297
1839.726563	18570.912109
1838.156250	18589.298828
1836.587891	18591.746094
1835.017578	18672.238281
1833.449219	18701.736328
1831.878906	18696.195313
1830.306641	18493.273438
1828.736328	18753.548828
1827.166016	18835.507813
1825.593750	18572.234375
1824.021484	18783.021484
1822.449219	18814.037109
1820.876953	18589.087891
1819.304688	18734.568359
1817.730469	18835.492188
1816.158203	18863.291016
1814.583984	18756.060547
1813.009766	18661.578125
1811.435547	18749.726563
1809.859375	18490.195313
1808.285156	18684.673828
1806.708984	18499.839844
1805.132813	18534.007813
1803.556641	18975.779297
1801.980469	18624.496094
1800.404297	18400.191406
1798.826172	18722.830078
1797.248047	18628.546875
1795.671875	18569.158203
1794.093750	18717.306641
1792.513672	18730.775391
1790.935547	18899.410156
1789.355469	18665.875000
1787.777344	18777.470703
1786.197266	18814.646484
1784.617188	18905.597656
1783.035156	18828.843750
1781.455078	18707.843750
1779.873047	18929.984375
1778.292969	19028.732422
1776.710938	19095.830078
1775.128906	18963.810547
1773.544922	18915.572266
1771.962891	18960.537109
1770.378906	18729.148438
1768.794922	18973.050781
1767.212891	18852.240234
1765.626953	18854.570313
1764.042969	19245.015625
1762.458984	18904.964844
1760.873047	18937.242188
1759.287109	19015.230469
1757.701172	18962.343750
1756.115234	19024.531250
1754.529297	19067.781250
1752.941406	19052.722656
1751.355469	18877.015625
1749.767578	19069.865234
1748.179688	19254.759766
1746.591797	19456.890625
1745.001953	19274.947266
1743.414063	19434.503906
1741.824219	19446.125000
1740.234375	19361.804688
1738.644531	19518.093750
1737.054688	19540.691406
1735.462891	19564.849609
1733.873047	19632.996094
1732.281250	19697.970703
1730.689453	19772.339844
1729.097656	19642.525391
1727.505859	19889.580078
1725.912109	19659.332031
1724.320313	19962.773438
1722.726563	19978.947266
1721.132813	20263.367188
1719.539063	20146.154297
1717.945313	20185.796875
1716.349609	20419.820313
1714.755859	20396.689453
1713.160156	20223.128906
1711.564453	20593.298828
1709.968750	20568.576172
1708.371094	20706.734375
1706.775391	20724.269531
1705.177734	20873.292969
1703.580078	20790.617188
1701.982422	21058.482422
1700.384766	20924.173828
1698.787109	21102.740234
1697.187500	21182.712891
1695.587891	21356.457031
1693.990234	21400.388672
1692.390625	21328.654297
1690.789063	21780.365234
1689.189453	21674.212891
1687.587891	21468.150391
1685.988281	21508.880859
1684.386719	21711.949219
1682.785156	21721.392578
1681.181641	22092.855469
1679.580078	22314.388672
1677.976563	22382.966797
1676.373047	22499.857422
1674.769531	22481.052734
1673.166016	22853.511719
1671.562500	23085.550781
1669.957031	23180.373047
1668.353516	23203.494141
1666.748047	23788.851563
1665.142578	24169.974609
1663.537109	24418.605469
1661.929688	24562.843750
1660.324219	24861.078125
1658.716797	25585.480469
1657.109375	25471.162109
1655.501953	26391.074219
1653.894531	26600.035156
1652.285156	27160.222656
1650.677734	27684.423828
1649.068359	28306.292969
1647.458984	28761.669922
1645.849609	29075.513672
1644.240234	29362.822266
1642.628906	29550.646484
1641.019531	30140.404297
1639.408203	30585.585938
1637.796875	31173.318359
1636.185547	31613.435547
1634.572266	32068.869141
1632.960938	32705.521484
1631.347656	32903.191406
1629.734375	34022.953125
1628.121094	34415.500000
1626.507813	35474.039063
1624.894531	35875.394531
1623.279297	36259.542969
1621.664063	37385.128906
1620.048828	37891.070313
1618.433594	38978.683594
1616.818359	39654.261719
1615.203125	40280.050781
1613.585938	40873.089844
1611.968750	41705.542969
1610.351563	42046.035156
1608.734375	43253.457031
1607.117188	43761.902344
1605.498047	44426.164063
1603.878906	45218.343750
1602.261719	45758.464844
1600.640625	46477.449219
1599.021484	46456.730469
1597.402344	46599.605469
1595.781250	47168.273438
1594.162109	47721.269531
1592.541016	47638.597656
1590.919922	48269.890625
1589.296875	48766.785156
1587.675781	48451.195313
1586.052734	48673.535156
1584.429688	48663.140625
1582.806641	49250.394531
1581.183594	48904.156250
1579.560547	48701.246094
1577.935547	48918.664063
1576.312500	49132.902344
1574.687500	49017.769531
1573.062500	48562.707031
1571.435547	48770.722656
1569.810547	49227.753906
1568.183594	48874.394531
1566.558594	48747.125000
1564.931641	48618.367188
1563.304688	48150.125000
1561.675781	48121.386719
1560.048828	47496.796875
1558.419922	47115.066406
1556.791016	47023.617188
1555.162109	46904.582031
1553.533203	46891.468750
1551.904297	46763.300781
1550.273438	47136.718750
1548.642578	46410.511719
1547.011719	46334.640625
1545.380859	45970.640625
1543.750000	45565.417969
1542.119141	44801.851563
1540.486328	44545.628906
1538.853516	44415.089844
1537.220703	43659.902344
1535.587891	43410.203125
1533.955078	43129.996094
1532.320313	42998.328125
1530.685547	42946.261719
1529.052734	43096.105469
1527.416016	42467.546875
1525.781250	42236.746094
1524.146484	41909.746094
1522.509766	41945.058594
1520.873047	41690.066406
1519.236328	41432.121094
1517.599609	41528.589844
1515.962891	40634.085938
1514.324219	40602.453125
1512.687500	40462.468750
1511.048828	40032.625000
1509.410156	39538.890625
1507.771484	39501.402344
1506.130859	38844.828125
1504.492188	38674.863281
1502.851563	38230.605469
1501.210938	38298.570313
1499.570313	37979.511719
1497.927734	37716.949219
1496.287109	37355.507813
1494.644531	37338.324219
1493.001953	37141.515625
1491.359375	37008.710938
1489.716797	36816.617188
1488.074219	36306.656250
1486.429688	36145.210938
1484.785156	36325.968750
1483.140625	35811.875000
1481.496094	35807.187500
1479.851563	35468.179688
1478.207031	35220.472656
1476.560547	35203.753906
1474.914063	35597.070313
1473.267578	35071.636719
1471.621094	35004.855469
1469.972656	34708.937500
1468.326172	34147.605469
1466.677734	34214.558594
1465.029297	34013.027344
1463.380859	33970.792969
1461.732422	34010.441406
1460.082031	33942.457031
1458.431641	34062.402344
1456.783203	33735.355469
1455.132813	33584.156250
1453.480469	33642.003906
1451.830078	33271.343750
1450.177734	33600.187500
1448.527344	33225.152344
1446.875000	33405.570313
1445.220703	33393.792969
1443.568359	33298.835938
1441.916016	33409.558594
1440.261719	33626.054688
1438.607422	33647.476563
1436.953125	33316.800781
1435.298828	33590.574219
1433.642578	33753.964844
1431.988281	33408.371094
1430.332031	33275.804688
1428.675781	33478.394531
1427.019531	33484.703125
1425.361328	33094.191406
1423.705078	33087.000000
1422.046875	33054.171875
1420.388672	33273.160156
1418.730469	32883.019531
1417.072266	33404.886719
1415.412109	33340.359375
1413.753906	32997.152344
1412.093750	32992.984375
1410.433594	33169.519531
1408.773438	33386.621094
1407.111328	33562.988281
1405.451172	33703.152344
1403.789063	34019.289063
1402.126953	34333.781250
1400.464844	34559.402344
1398.802734	34780.410156
1397.138672	34413.554688
1395.474609	34419.574219
1393.812500	34373.000000
1392.146484	34330.949219
1390.482422	34367.015625
1388.818359	34703.378906
1387.152344	34413.566406
1385.486328	34524.625000
1383.820313	34583.113281
1382.154297	34569.554688
1380.488281	34719.500000
1378.820313	35028.332031
1377.154297	34810.773438
1375.486328	34830.144531
1373.818359	34744.597656
1372.148438	35222.453125
1370.480469	34964.585938
1368.810547	34485.167969
1367.140625	35209.820313
1365.470703	34986.542969
1363.800781	35204.878906
1362.130859	34820.089844
1360.458984	34751.125000
1358.787109	35056.109375
1357.115234	34930.292969
1355.443359	34928.617188
1353.771484	34772.980469
1352.097656	34883.414063
1350.423828	35536.132813
1348.751953	35374.484375
1347.076172	35681.828125
1345.402344	36251.816406
1343.728516	36521.507813
1342.052734	36701.531250
1340.376953	36997.859375
1338.701172	37219.460938
1337.025391	37585.632813
1335.347656	37541.585938
1333.671875	37909.007813
1331.994141	37909.613281
1330.316406	38038.367188
1328.638672	38195.367188
1326.960938	38358.253906
1325.281250	37760.109375
1323.601563	37473.390625
1321.921875	37439.835938
1320.242188	37075.921875
1318.562500	36965.093750
1316.880859	36611.847656
1315.201172	36176.960938
1313.519531	35858.238281
1311.837891	35282.480469
1310.154297	35093.382813
1308.472656	34639.886719
1306.789063	34376.730469
1305.105469	33890.906250
1303.421875	33641.390625
1301.738281	33587.941406
1300.054688	33193.144531
1298.369141	32743.611328
1296.683594	32708.189453
1294.998047	32678.712891
1293.312500	32465.365234
1291.626953	31945.212891
1289.939453	31850.695313
1288.253906	31594.687500
1286.566406	31704.742188
1284.878906	31389.623047
1283.189453	31372.308594
1281.501953	31076.642578
1279.812500	31118.609375
1278.123047	31095.437500
1276.433594	30797.060547
1274.744141	30890.828125
1273.052734	30922.435547
1271.363281	30417.275391
1269.671875	30518.447266
1267.980469	30001.769531
1266.289063	29890.199219
1264.595703	29926.410156
1262.904297	29959.646484
1261.210938	29718.203125
1259.517578	29503.437500
1257.824219	29067.361328
1256.128906	29140.589844
1254.435547	29138.541016
1252.740234	29291.369141
1251.044922	28827.695313
1249.349609	28962.826172
1247.652344	28962.279297
1245.957031	28728.880859
1244.259766	28564.833984
1242.562500	28533.433594
1240.865234	28300.279297
1239.167969	28095.199219
1237.468750	27918.179688
1235.769531	27842.787109
1234.072266	27702.681641
1232.371094	27767.119141
1230.671875	27593.259766
1228.972656	27295.957031
1227.271484	27126.685547
1225.570313	27167.666016
1223.869141	27023.474609
1222.167969	26791.195313
1220.464844	26720.585938
1218.763672	26573.644531
1217.060547	26558.898438
1215.357422	26444.345703
1213.654297	26194.832031
1211.949219	26155.230469
1210.246094	26122.980469
1208.541016	25728.511719
1206.835938	25989.601563
1205.130859	25602.664063
1203.423828	25589.607422
1201.718750	25490.105469
1200.011719	25450.705078
1198.304688	25437.683594
1196.597656	25515.445313
1194.888672	25080.808594
1193.181641	25100.068359
1191.472656	25188.087891
1189.763672	24989.337891
1188.054688	25306.962891
1186.343750	25299.822266
1184.634766	25019.304688
1182.923828	25018.074219
1181.212891	25304.710938
1179.501953	24964.474609
1177.791016	25026.056641
1176.078125	24761.964844
1174.365234	24588.505859
1172.652344	24453.072266
1170.939453	24605.179688
1169.226563	24478.552734
1167.511719	24518.265625
1165.798828	24327.542969
1164.083984	24511.607422
1162.369141	24068.794922
1160.652344	24475.798828
1158.937500	24130.806641
1157.220703	24087.498047
1155.503906	23859.251953
1153.787109	23769.425781
1152.070313	23416.160156
1150.351563	23409.425781
1148.632813	23350.310547
1146.916016	23241.759766
1145.195313	23188.521484
1143.476563	22885.210938
1141.757813	22755.025391
1140.037109	22607.455078
1138.316406	22465.761719
1136.595703	22042.300781
1134.875000	22064.917969
1133.152344	22052.669922
1131.429688	21832.828125
1129.708984	21674.041016
1127.984375	21560.308594
1126.261719	21214.501953
1124.539063	21063.208984
1122.814453	20880.078125
1121.089844	21168.207031
1119.365234	20574.937500
1117.640625	20576.074219
1115.914063	20439.574219
1114.187500	20869.482422
1112.462891	20385.419922
1110.734375	20377.904297
1109.007813	20276.302734
1107.281250	20032.923828
1105.552734	19875.017578
1103.824219	19666.550781
1102.095703	19715.595703
1100.367188	19816.667969
1098.636719	19913.353516
1096.908203	19991.207031
1095.177734	19768.492188
1093.447266	19706.220703
1091.714844	19703.185547
1089.984375	19509.560547
1088.251953	19535.439453
1086.519531	19220.707031
1084.787109	19015.773438
1083.054688	19070.591797
1081.320313	19022.984375
1079.585938	18787.951172
1077.851563	19046.039063
1076.117188	18939.373047
1074.382813	18720.363281
1072.648438	18997.011719
1070.912109	18946.593750
1069.175781	18989.792969
1067.439453	18950.914063
1065.701172	18935.078125
1063.964844	18781.107422
1062.226563	18835.806641
1060.488281	18866.027344
1058.750000	18809.953125
1057.011719	18569.888672
1055.271484	18582.894531
1053.531250	18559.968750
1051.791016	18407.753906
1050.050781	18557.234375
1048.310547	18413.701172
1046.568359	18471.224609
1044.826172	18554.556641
1043.083984	18304.925781
1041.341797	18158.705078
1039.599609	18303.722656
1037.855469	18229.265625
1036.113281	18326.884766
1034.369141	18392.923828
1032.623047	18097.804688
1030.878906	18169.591797
1029.132813	18199.804688
1027.386719	18254.347656
1025.640625	18250.164063
1023.894531	18317.548828
1022.148438	18380.607422
1020.400391	18290.546875
1018.652344	18284.919922
1016.904297	18180.617188
1015.156250	18153.568359
1013.406250	18016.462891
1011.658203	17837.974609
1009.908203	17851.023438
1008.158203	18048.332031
1006.408203	18014.193359
1004.656250	18104.287109
1002.904297	18165.787109
1001.152344	18068.845703
999.400391	18180.259766
997.648438	17982.078125
995.896484	18176.173828
994.142578	18167.712891
992.388672	17855.625000
990.634766	18019.681641
988.878906	18014.107422
987.125000	18065.511719
985.369141	18062.773438
983.613281	18109.869141
981.857422	18107.119141
980.099609	18009.013672
978.343750	18179.871094
976.585938	18172.832031
974.828125	18032.107422
973.070313	18160.181641
971.310547	18150.302734
969.552734	17991.199219
967.792969	17981.361328
966.033203	18106.480469
964.273438	18036.966797
962.511719	18281.281250
960.750000	18382.105469
958.990234	18417.593750
957.226563	18467.255859
955.464844	18692.796875
953.703125	18438.857422
951.939453	18418.994141
950.175781	18126.957031
948.412109	17878.988281
946.648438	18043.466797
944.882813	17788.546875
943.117188	17764.597656
941.351563	17560.832031
939.585938	17410.951172
937.820313	17517.310547
936.052734	17695.783203
934.285156	17451.189453
932.517578	17390.568359
930.750000	17642.468750
928.982422	17553.554688
927.212891	17402.494141
925.443359	17308.021484
923.673828	17377.464844
921.904297	17453.933594
920.132813	17379.279297
918.361328	17389.359375
916.591797	17241.357422
914.818359	17300.847656
913.046875	17234.755859
911.275391	17209.593750
909.501953	17084.326172
907.728516	17263.619141
905.955078	17146.849609
904.179688	17042.816406
902.406250	17360.044922
900.630859	17141.923828
898.855469	17381.533203
897.080078	17352.146484
895.302734	17478.998047
893.525391	17289.187500
891.750000	17423.023438
889.970703	17478.035156
888.193359	17379.750000
886.416016	17298.378906
884.636719	17219.855469
882.857422	17176.496094
881.078125	17203.394531
879.296875	17029.437500
877.517578	16981.935547
875.736328	17122.566406
873.955078	17119.972656
872.173828	16717.472656
870.390625	16859.464844
868.609375	16744.726563
866.826172	16973.580078
865.042969	16797.183594
863.259766	16636.285156
861.474609	16713.666016
859.689453	16716.763672
857.904297	16810.892578
856.119141	16591.326172
854.333984	16726.035156
852.546875	16615.753906
850.761719	16716.808594
848.974609	16635.955078
847.185547	16542.550781
845.398438	16591.810547
843.609375	16582.333984
841.822266	16782.500000
840.031250	16701.718750
838.242188	16707.582031
836.453125	16998.355469
834.662109	17113.056641
832.871094	17055.998047
831.080078	16768.681641
829.289063	16873.583984
827.496094	16843.121094
825.703125	16747.121094
823.910156	16942.580078
822.117188	16705.804688
820.324219	16485.863281
818.529297	16390.029297
816.734375	16588.169922
814.939453	16697.082031
813.144531	16400.761719
811.347656	16318.954102
809.550781	16280.326172
807.755859	16105.358398
805.957031	16254.588867
804.160156	16364.807617
802.361328	16233.041992
800.564453	16186.130859
798.765625	16268.488281
796.964844	16060.415039
795.166016	16355.291992
793.365234	16116.740234
791.564453	16326.766602
789.763672	16406.210938
787.962891	16277.445313
786.160156	16344.373047
784.359375	16423.751953
782.556641	16353.314453
780.751953	16097.120117
778.949219	16111.346680
777.144531	16182.383789
775.339844	16282.482422
773.535156	16149.821289
771.730469	16230.488281
769.925781	16236.352539
768.119141	16340.489258
766.312500	16390.605469
764.505859	16426.859375
762.697266	16450.648438
760.890625	16493.783203
759.082031	16274.208008
757.273438	16249.631836
755.464844	16223.683594
753.654297	16395.312500
751.845703	16320.995117
750.035156	16640.279297
748.224609	16738.511719
746.412109	17063.062500
744.601563	17184.605469
742.789063	17700.664063
740.976563	18224.751953
739.164063	19682.158203
737.349609	21744.103516
735.537109	24479.072266
733.722656	26384.566406
731.908203	27202.171875
730.091797	26314.230469
728.277344	24117.160156
726.460938	21773.822266
724.644531	19818.349609
722.828125	18500.912109
721.009766	17722.000000
719.193359	17448.226563
717.375000	16775.810547
715.556641	16513.384766
713.736328	16226.341797
711.917969	16539.910156
710.097656	16118.366211
708.277344	16353.522461
706.457031	16138.186523
704.636719	16319.685547
702.814453	16244.447266
700.992188	16222.755859
699.169922	16018.623047
697.347656	16157.457031
695.523438	16186.531250
693.699219	16388.314453
691.875000	16566.703125
690.050781	16469.597656
688.226563	16583.494141
686.400391	16428.908203
684.574219	16483.882813
682.748047	16581.265625
680.921875	16169.497070
679.095703	16448.878906
677.267578	16247.993164
675.439453	16312.510742
673.611328	16226.598633
671.781250	16545.337891
669.953125	16295.415039
668.123047	16383.082031
666.292969	16201.612305
664.460938	16259.212891
662.630859	16551.617188
660.798828	16559.966797
658.966797	16490.523438
657.134766	16541.173828
655.302734	16628.625000
653.468750	16801.947266
651.634766	16707.966797
649.800781	16763.964844
647.966797	16828.109375
646.130859	16967.152344
644.294922	17028.492188
642.458984	16801.113281
640.623047	16719.509766
638.787109	16823.054688
636.949219	16751.009766
635.111328	16782.390625
633.273438	16608.376953
631.435547	16632.974609
629.595703	16881.873047
627.757813	16721.546875
625.917969	16759.685547
624.076172	16944.521484
622.236328	16826.394531
620.394531	16826.457031
618.552734	16613.384766
616.710938	16561.921875
614.869141	16642.097656
613.025391	16684.251953
611.183594	16703.328125
609.339844	16565.107422
607.494141	16412.041016
605.650391	16474.533203
603.804688	16383.886719
601.958984	16088.734375
600.113281	15983.323242
598.267578	15998.462891
596.419922	15861.987305
594.572266	15869.027344
592.724609	15808.412109
590.876953	15864.155273
589.027344	15830.615234
587.179688	15848.466797
585.330078	15777.096680
583.480469	15767.922852
581.628906	15908.718750
579.779297	15985.962891
577.927734	15821.444336
576.076172	16066.081055
574.222656	15874.624023
572.371094	15980.135742
570.517578	15804.977539
568.664063	15844.361328
566.810547	15934.967773
564.955078	15751.854492
563.101563	15896.350586
561.246094	16055.598633
559.390625	15863.153320
557.533203	16070.818359
555.677734	15984.835938
553.820313	15839.660156
551.962891	16035.065430
550.105469	15681.379883
548.246094	15654.759766
546.386719	15796.267578
544.527344	15702.399414
542.667969	15658.314453
540.808594	15571.242188
538.947266	15597.077148
537.085938	15522.148438
535.224609	15717.199219
533.363281	15620.791992
531.500000	15392.879883
529.638672	15448.245117
527.775391	15287.566406
525.910156	15448.899414
524.046875	15518.960938
522.181641	15672.114258
520.316406	15697.852539
518.451172	15669.971680
516.585938	15600.570313
514.718750	15413.327148
512.851563	15294.469727
510.984375	15284.113281
509.117188	15218.881836
507.250000	15219.251953
505.380859	15269.122070
503.511719	15186.549805
501.642578	15354.078125
499.771484	15219.382813
497.902344	15202.372070
496.031250	15146.616211
494.160156	15025.423828
492.287109	15077.920898
490.416016	14992.855469
488.542969	15070.698242
486.669922	14945.632813
484.796875	15091.499023
482.921875	15085.215820
481.046875	15101.606445
479.171875	14972.649414
477.296875	15098.370117
475.421875	15125.406250
473.544922	15028.511719
471.667969	15220.730469
469.791016	15069.254883
467.914063	14997.738281
466.035156	14895.638672
464.156250	14841.497070
462.277344	15122.671875
460.398438	14900.894531
458.519531	14931.900391
456.638672	14936.298828
454.757813	14997.852539
452.876953	15059.375000
450.994141	14990.664063
449.113281	14870.182617
447.230469	14970.200195
445.347656	14940.059570
443.462891	14970.989258
441.580078	14997.921875
439.695313	14999.634766
437.810547	14862.075195
435.925781	14773.645508
434.039063	14828.436523
432.152344	14797.048828
430.267578	14912.761719
428.378906	14809.828125
426.492188	14721.512695
424.603516	14953.683594
422.714844	14816.392578
420.826172	14897.546875
418.937500	14784.150391
417.046875	14861.302734
415.158203	14630.259766
413.265625	14588.407227
411.375000	14637.789063
409.484375	14684.501953
407.591797	14646.628906
405.699219	14614.057617
403.806641	14356.987305
401.912109	14471.057617
400.019531	14457.029297
