#Wave		#Intensity
1585.210938	4528.231934
1584.209961	4530.729492
1583.208984	4397.442871
1582.208008	4593.764160
1581.206055	4625.261719
1580.204102	4469.577637
1579.202148	4473.642090
1578.200195	4422.824219
1577.198242	4541.621582
1576.195313	4525.719727
1575.192383	4552.205078
1574.189453	4411.683594
1573.186523	4485.528809
1572.182617	4502.039551
1571.178711	4553.416504
1570.174805	4467.799805
1569.170898	4389.687500
1568.166992	4488.353516
1567.162109	4499.868652
1566.158203	4374.519043
1565.153320	4405.955078
1564.147461	4591.591797
1563.142578	4329.526367
1562.136719	4438.026367
1561.130859	4367.505859
1560.125000	4339.263672
1559.119141	4437.754883
1558.113281	4456.709961
1557.106445	4485.591797
1556.099609	4372.918945
1555.092773	4414.219238
1554.084961	4351.250488
1553.078125	4514.139160
1552.070313	4371.779297
1551.062500	4418.006348
1550.054688	4474.134277
1549.045898	4443.452637
1548.038086	4345.848145
1547.029297	4446.569824
1546.020508	4391.131836
1545.011719	4382.790039
1544.001953	4406.653320
1542.992188	4368.592773
1541.982422	4283.503906
1540.972656	4396.490234
1539.962891	4487.154297
1538.952148	4285.792969
1537.942383	4284.905762
1536.931641	4363.168945
1535.919922	4473.547852
1534.909180	4376.196777
1533.897461	4439.560547
1532.886719	4515.254883
1531.874023	4474.785645
1530.862305	4367.632813
1529.850586	4413.656250
1528.837891	4425.088867
1527.825195	4451.330078
1526.812500	4368.953613
1525.799805	4449.486816
1524.786133	4441.163574
1523.772461	4353.906250
1522.758789	4306.145020
1521.745117	4342.240234
1520.731445	4412.833984
1519.716797	4446.426758
1518.702148	4396.220703
1517.687500	4304.152344
1516.672852	4404.253418
1515.657227	4464.909180
1514.642578	4375.344727
1513.626953	4551.681152
1512.610352	4553.199707
1511.594727	4441.525879
1510.579102	4455.367188
1509.562500	4501.177734
1508.545898	4446.144531
1507.529297	4467.351074
1506.511719	4525.420898
1505.494141	4487.619141
1504.477539	4459.661621
1503.458984	4358.016602
1502.441406	4305.536133
1501.423828	4383.222656
1500.405273	4460.877441
1499.386719	4364.225098
1498.368164	4382.953125
1497.348633	4440.930176
1496.330078	4440.010254
1495.310547	4431.732910
1494.291016	4386.677734
1493.271484	4130.811035
1492.250977	4291.721680
1491.231445	4406.005859
1490.210938	4463.892578
1489.190430	4460.518066
1488.168945	4329.797852
1487.148438	4492.947754
1486.126953	4396.545898
1485.105469	4427.451660
1484.083984	4463.238281
1483.061523	4432.955566
1482.040039	4463.833984
1481.017578	4345.527832
1479.995117	4469.317871
1478.971680	4468.391113
1477.949219	4658.089355
1476.925781	4522.736328
1475.902344	4521.798828
1474.878906	4481.782715
1473.855469	4446.666992
1472.831055	4616.641113
1471.806641	4561.984375
1470.782227	4590.322754
1469.757813	4586.930664
1468.733398	4561.585449
1467.708008	4589.905273
1466.682617	4662.103516
1465.657227	4724.519531
1464.631836	4591.923828
1463.605469	4534.923828
1462.579102	4706.961426
1461.552734	4618.295410
1460.526367	4673.349121
1459.500000	4660.205078
1458.472656	4737.135254
1457.445313	4760.489746
1456.417969	4708.402832
1455.390625	4624.710938
1454.362305	4752.661133
1453.334961	4666.562500
1452.306641	4796.881836
1451.277344	4825.054688
1450.249023	4651.504883
1449.219727	4721.001465
1448.191406	4836.625000
1447.162109	4779.759277
1446.131836	4834.615723
1445.102539	4649.104004
1444.072266	4703.964355
1443.041992	4795.202637
1442.011719	4816.042480
1440.981445	4725.290039
1439.950195	4748.560547
1438.918945	4793.643066
1437.887695	4751.435059
1436.856445	4774.684570
1435.825195	4827.002441
1434.792969	4777.545410
1433.760742	4677.242188
1432.728516	4685.956543
1431.696289	4655.928223
1430.663086	4582.339844
1429.629883	4637.050781
1428.596680	4657.863281
1427.563477	4727.050293
1426.530273	4564.016602
1425.496094	4538.885742
1424.461914	4443.652832
1423.427734	4573.254883
1422.393555	4475.637207
1421.358398	4675.246094
1420.323242	4514.840332
1419.288086	4501.825195
1418.252930	4498.473633
1417.217773	4533.749023
1416.181641	4426.605469
1415.145508	4481.186035
1414.109375	4550.219238
1413.073242	4385.247070
1412.036133	4473.563965
1411.000000	4506.387695
1409.962891	4490.985352
1408.924805	4506.920898
1407.887695	4498.752930
1406.849609	4526.725098
1405.812500	4499.287109
1404.773438	4495.941406
1403.735352	4658.721680
1402.697266	4573.501953
1401.658203	4596.614746
1400.619141	4506.630859
1399.580078	4573.048340
1398.540039	4521.587402
1397.500977	4520.644531
1396.460938	4457.195313
1395.420898	4480.301758
1394.380859	4491.382813
1393.339844	4610.575684
1392.298828	4501.519531
1391.257813	4543.809082
1390.216797	4523.652344
1389.175781	4469.895020
1388.133789	4543.365234
1387.091797	4444.033691
1386.049805	4471.895020
1385.007813	4470.961426
1383.964844	4539.572266
1382.922852	4497.865723
1381.879883	4528.088379
1380.835938	4637.385254
1379.792969	4485.463379
1378.749023	4465.361816
1377.706055	4507.540527
1376.661133	4489.836426
1375.617188	4503.262695
1374.573242	4543.012695
1373.528320	4611.462402
1372.483398	4562.646484
1371.438477	4592.790039
1370.392578	4467.467285
1369.347656	4607.606934
1368.301758	4635.330078
1367.255859	4545.927734
1366.208984	4528.250000
1365.163086	4551.193359
1364.116211	4516.801270
1363.069336	4604.214844
1362.022461	4557.887207
1360.974609	4461.450195
1359.927734	4477.222656
1358.879883	4559.797852
1357.832031	4532.602051
1356.783203	4529.267578
1355.735352	4480.627930
1354.686523	4570.284180
1353.637695	4395.325684
1352.588867	4561.220703
1351.539063	4567.412598
1350.490234	4637.917969
1349.440430	4608.367188
1348.390625	4571.685059
1347.339844	4546.920898
1346.290039	4588.809082
1345.239258	4652.096191
1344.188477	4739.146973
1343.137695	4654.902344
1342.085938	4653.925781
1341.034180	4788.472168
1339.982422	4806.484375
1338.930664	4819.735840
1337.878906	4716.552246
1336.826172	4853.346680
1335.773438	4821.451660
1334.720703	4699.334961
1333.667969	4790.938477
1332.614258	4740.086426
1331.561523	4710.613770
1330.507813	4773.685059
1329.453125	4668.309082
1328.399414	4814.368164
1327.344727	4901.087891
1326.290039	4745.968262
1325.235352	4766.301758
1324.180664	4824.540039
1323.125000	4771.405273
1322.070313	4699.343262
1321.014648	4878.332520
1319.958008	4652.382324
1318.902344	4765.025879
1317.845703	4612.559082
1316.789063	4687.304688
1315.732422	4773.846680
1314.675781	4626.204102
1313.618164	4658.334961
1312.560547	4751.919922
1311.502930	4654.010254
1310.445313	4697.930176
1309.386719	4656.775391
1308.329102	4641.622070
1307.270508	4654.813965
1306.210938	4696.333984
1305.152344	4744.917969
1304.092773	4666.033203
1303.033203	4622.575684
1301.973633	4692.375977
1300.914063	4686.669434
1299.853516	4718.695313
1298.792969	4654.043457
1297.732422	4612.989746
1296.671875	4713.353516
1295.611328	4667.591797
1294.549805	4626.560059
1293.488281	4604.387207
1292.426758	4674.056152
1291.364258	4512.984375
1290.302734	4457.896484
1289.240234	4602.853516
1288.177734	4604.233887
1287.114258	4518.582031
1286.051758	4472.944824
1284.988281	4511.970703
1283.924805	4381.728027
1282.861328	4392.552734
1281.796875	4527.908203
1280.732422	4496.411133
1279.667969	4504.854980
1278.603516	4527.384766
1277.539063	4474.776855
1276.473633	4363.510254
1275.408203	4416.562012
1274.342773	4464.898438
1273.277344	4496.793945
1272.210938	4472.389648
1271.145508	4265.104980
1270.079102	4505.660156
1269.011719	4528.143555
1267.945313	4445.170410
1266.877930	4418.458496
1265.810547	4490.132813
1264.743164	4458.738281
1263.674805	4338.388184
1262.607422	4391.306641
1261.539063	4528.452148
1260.470703	4410.502930
1259.401367	4390.853027
1258.333008	4427.342773
1257.263672	4400.682129
1256.194336	4416.113281
1255.125000	4443.223633
1254.054688	4369.839844
1252.985352	4280.132324
1251.915039	4407.693848
1250.843750	4439.452148
1249.773438	4319.433105
1248.702148	4374.540039
1247.630859	4396.949219
1246.559570	4515.015137
1245.488281	4320.429688
1244.416016	4487.440918
1243.343750	4477.159180
1242.271484	4373.627930
1241.199219	4428.638672
1240.125977	4453.331055
1239.053711	4293.952637
1237.980469	4372.237793
1236.906250	4417.885254
1235.833008	4361.063477
1234.758789	4402.037598
1233.684570	4373.171875
1232.610352	4293.125977
1231.536133	4287.559082
1230.460938	4314.557129
1229.385742	4322.939453
1228.310547	4424.314941
1227.235352	4311.799805
1226.159180	4389.894531
1225.083008	4407.546387
1224.006836	4355.501953
1222.930664	4419.601563
1221.853516	4420.981445
1220.777344	4292.358398
1219.700195	4342.503906
1218.622070	4376.384277
1217.544922	4324.411133
1216.466797	4223.750977
1215.388672	4273.866699
1214.310547	4291.502441
1213.232422	4320.719727
1212.153320	4203.922363
1211.074219	4237.779297
1209.995117	4385.129883
1208.916016	4296.184570
1207.835938	4079.924316
1206.755859	4305.923340
1205.675781	4302.688477
1204.595703	4264.744141
1203.514648	4261.518555
1202.434570	4251.354980
1201.353516	4294.383301
1200.271484	4254.159668
1199.190430	4341.088379
1198.108398	4319.359863
1197.026367	4341.540527
1195.944336	4301.339844
1194.862305	4231.131836
1193.779297	4216.371094
1192.696289	4240.861816
1191.613281	4230.721191
1190.530273	4375.192383
1189.446289	4208.144043
1188.362305	4274.133301
1187.278320	4238.625000
1186.194336	4228.493652
1185.109375	4296.740234
1184.024414	4247.421387
1182.939453	4223.468750
1181.854492	4386.120605
1180.768555	4164.077637
1179.683594	4278.315918
1178.597656	4206.030762
1177.510742	4235.049316
1176.424805	4151.297852
1175.337891	4187.216309
1174.250977	4255.322266
1173.164063	4224.511719
1172.077148	4101.747070
1170.989258	4208.903809
1169.901367	4194.209473
1168.813477	4338.062988
1167.724609	4252.132813
1166.636719	4209.877441
1165.547852	4172.231934
1164.458984	4214.953125
1163.369141	4177.322266
1162.280273	4174.127930
1161.190430	4056.222900
1160.100586	4181.505371
1159.010742	4111.807129
1157.919922	4239.315918
1156.829102	4197.141602
1155.738281	4264.990234
1154.647461	4199.915527
1153.555664	4210.463867
1152.464844	4259.942383
1151.373047	4217.807129
1150.280273	4093.275146
1149.188477	4225.143066
1148.095703	4217.366211
1147.002930	4216.456055
1145.910156	4142.351563
1144.817383	4251.225098
1143.723633	4039.963867
1142.629883	4157.955566
1141.536133	4248.471191
1140.441406	4270.401855
1139.347656	4278.616699
1138.252930	4172.633789
1137.158203	4242.516602
1136.062500	4166.264160
1134.967773	4220.140625
1133.872070	4289.966797
1132.776367	4197.782715
1131.679688	4224.245117
1130.583984	4298.584961
1129.487305	4299.934082
1128.390625	4228.341309
1127.292969	4257.051758
1126.196289	4247.016113
1125.098633	4305.322754
1124.000977	4211.014648
1122.903320	4303.457520
1121.804688	4243.336426
1120.706055	4153.653809
1119.607422	4236.946289
1118.508789	4140.478027
1117.409180	4175.971680
1116.310547	4120.490234
1115.210938	4208.262695
1114.110352	4250.537109
1113.010742	4167.803711
1111.910156	4132.818359
1110.809570	4109.206055
1109.708984	4219.594727
1108.607422	4193.702148
1107.506836	4238.192383
1106.405273	4078.402100
1105.303711	4238.619629
1104.201172	4053.943604
1103.098633	4227.704590
1101.996094	4104.335449
1100.893555	4166.921875
1099.791016	4263.479492
1098.687500	4178.705566
1097.583984	4270.686523
1096.480469	4138.380371
1095.376953	4042.364746
1094.272461	4197.710449
1093.167969	4108.514160
1092.063477	4186.829590
1090.958008	4233.433105
1089.853516	4078.683594
1088.748047	4188.616699
1087.642578	4214.837891
1086.536133	4247.829590
1085.430664	4172.316895
1084.324219	4268.574219
1083.217773	4193.089355
1082.110352	4140.224121
1081.003906	4130.288086
1079.896484	4237.757324
1078.789063	4261.662109
1077.680664	4193.029297
1076.573242	4307.182617
1075.464844	4091.944824
1074.356445	4176.750977
1073.247070	4196.131348
1072.138672	4143.366211
1071.029297	4113.161133
1069.919922	4152.821289
1068.809570	4055.042969
1067.700195	4155.510254
1066.589844	4114.068359
1065.479492	4104.163086
1064.368164	4175.291992
1063.257813	4190.130371
1062.146484	4204.962402
1061.035156	4127.563477
1059.922852	4144.650879
1058.811523	4184.213867
1057.699219	4120.356445
1056.586914	4027.311279
1055.473633	4176.970215
1054.361328	4167.069336
1053.248047	4112.254395
1052.134766	4169.733398
1051.021484	4135.145020
1049.907227	4167.904785
1048.792969	4090.696533
1047.678711	4038.199707
1046.564453	4102.358887
1045.449219	4094.731201
1044.333984	4246.286133
1043.218750	4148.970215
1042.103516	4195.119629
1040.987305	4068.730713
1039.871094	4161.916992
1038.754883	4055.745605
1037.638672	4186.956055
1036.521484	4197.228027
1035.404297	4187.353516
1034.287109	4134.969238
1033.169922	4064.711426
1032.051758	4083.946289
1030.933594	4024.909912
1029.815430	4144.745117
1028.697266	4016.433350
1027.578125	4212.192871
1026.458984	4119.667480
1025.339844	4243.841797
1024.220703	3930.271729
1023.100586	4210.715820
1021.980469	4167.377441
1020.860352	4110.668457
1019.740234	4145.460449
1018.619141	4084.318848
1017.498047	4128.021484
1016.376953	4098.125488
1015.255859	4023.658691
1014.133789	4085.174072
1013.011719	4086.500732
1011.889648	4032.134033
1010.767578	4093.605713
1009.644531	4068.208008
1008.521484	4065.083496
1007.398438	4081.991455
1006.274414	3943.124756
1005.151367	3944.478271
1004.027344	4090.407471
1002.902344	4031.685547
1001.778320	4006.338135
1000.653320	4063.244629
999.528320	4131.236816
998.403320	4059.225586
997.278320	4067.212891
996.152344	4115.170898
995.026367	4078.734863
993.900391	4020.116211
992.773438	4050.297119
991.646484	4135.935059
990.519531	4041.848145
989.392578	4151.846191
988.265625	4068.883545
987.137695	4045.812988
986.009766	4075.945801
984.881836	4130.439941
983.752930	3963.368164
982.624023	4102.029297
981.495117	4112.191406
980.366211	3985.084961
979.236328	4015.188965
978.106445	4040.853271
976.976563	4124.029785
975.846680	4114.266602
974.715820	4128.833496
973.585938	3979.780029
972.454102	4031.947998
971.323242	4163.652832
970.191406	4111.908691
969.060547	4060.187256
967.927734	4063.701904
966.795898	4084.878906
965.663086	4090.593262
964.530273	4206.657715
963.397461	4057.881836
962.264648	4101.100586
961.130859	3912.713135
959.997070	4090.455078
958.863281	4100.567383
957.729492	4167.982422
956.594727	4096.538086
955.459961	4064.781982
954.325195	4059.471191
953.189453	4087.194580
952.053711	4132.519043
950.917969	4122.792969
949.782227	4181.292480
948.646484	4041.748291
947.509766	4133.234375
946.373047	4066.336182
945.235352	4050.038086
944.098633	4130.468750
942.960938	3964.717041
941.823242	4089.075195
940.685547	4110.129883
939.546875	4021.361572
938.408203	4086.336914
937.269531	3988.831543
936.129883	4029.641602
934.991211	4090.181885
933.851563	4062.942139
932.711914	4075.193848
931.571289	4076.475830
930.431641	3994.447754
929.291016	4136.024902
928.149414	4018.957520
927.008789	4096.930176
925.867188	4091.632568
924.725586	4081.957275
923.583984	4127.020996
922.441406	4183.009277
921.299805	4048.578857
920.157227	4097.994629
919.013672	3994.267090
917.871094	4069.915527
916.727539	4047.139160
915.583984	3989.396973
914.439453	4071.551270
913.295898	4042.233643
912.151367	4100.309082
911.006836	4016.396973
909.861328	3995.844482
908.716797	3966.568848
907.571289	4055.163086
906.424805	4006.248047
905.279297	4099.156250
904.132813	4161.487305
902.986328	4095.135498
901.839844	4185.779785
900.692383	4047.524658
899.545898	4035.719971
898.398438	4104.529297
897.250000	4188.554199
896.102539	4102.685059
894.954102	4112.648438
893.805664	4100.840820
892.656250	4169.556152
891.507813	4205.605469
890.358398	4093.724365
889.208984	4005.814941
888.058594	4137.541016
886.908203	4027.923584
885.758789	4094.387451
884.607422	4006.555664
883.457031	3949.174805
882.305664	4156.775879
881.154297	3986.479492
880.002930	4141.878906
878.850586	4025.919434
877.698242	3998.974365
876.545898	4093.523682
875.393555	4086.094482
874.240234	3972.419189
873.086914	4097.259277
871.933594	4046.485840
870.780273	4084.577148
869.625977	4155.146973
868.471680	4076.236572
867.317383	3938.895508
866.162109	4063.572510
865.007813	4012.873047
863.852539	3992.491455
862.696289	4006.734131
861.541016	4096.674316
860.384766	4017.899414
859.228516	4006.181885
858.072266	4003.115234
856.915039	3963.312256
855.757813	3897.600342
854.600586	3985.281250
853.442383	3988.699219
852.285156	4022.342285
851.126953	4081.872803
849.968750	4039.945801
848.809570	3978.619141
847.650391	4182.644531
846.491211	4032.891113
845.332031	4116.067383
844.171875	3942.683838
843.012695	3967.653076
841.851563	4102.499023
840.691406	3927.081055
839.530273	3902.500732
838.369141	3929.608398
837.208008	3993.299805
836.046875	3906.305420
834.884766	4006.552246
833.722656	4027.156494
832.560547	3925.157227
831.397461	4134.995117
830.234375	3985.721436
829.071289	4036.400635
827.908203	4039.782715
826.744141	3978.712891
825.580078	3975.662109
824.416016	3957.580811
823.251953	3948.094971
822.086914	3932.174072
820.921875	4023.554688
819.756836	3885.334961
818.590820	3886.597412
817.425781	3913.592041
816.259766	3859.104248
815.092773	3864.657959
813.926758	3964.499268
812.759766	3903.608643
811.592773	3947.703125
810.424805	3998.201904
809.257813	3950.190186
808.089844	3915.043213
806.920898	3830.690674
805.752930	3977.449219
804.583984	3824.669678
803.415039	3843.046875
802.246094	4038.877686
801.076172	3847.710449
799.906250	3921.634033
798.736328	3884.418213
797.566406	3904.895264
796.395508	3910.412842
795.224609	3841.196289
794.053711	3874.476318
792.881836	3924.814697
791.710938	3851.373779
790.538086	3940.092041
789.366211	3860.281982
788.194336	3963.883057
787.021484	3875.576172
785.848633	3902.399414
784.674805	3971.825928
783.500977	3953.877441
782.327148	3940.196533
781.153320	4052.153076
779.979492	3889.434570
778.804688	3837.465820
777.629883	4002.565674
776.454102	3899.536377
775.279297	3839.092285
774.103516	3825.457031
772.927734	3760.804932
771.750977	3906.603027
770.575195	3841.961182
769.398438	3809.216064
768.220703	3872.065918
767.043945	3794.734131
765.866211	3921.249268
764.688477	3945.823486
763.510742	3906.724121
762.332031	3903.709229
761.153320	3826.457275
759.974609	3823.461426
758.794922	3780.184326
757.616211	3811.114258
756.436523	3865.340332
755.255859	3908.947998
754.076172	3910.171631
752.895508	3845.745605
751.714844	3866.037598
750.533203	3843.985107
749.352539	3904.476074
748.170898	3857.035400
746.988281	4071.910400
745.806641	3870.072266
744.624023	3907.243164
743.441406	4043.746826
742.258789	4055.500244
741.075195	3906.670898
739.891602	4089.552002
738.708008	4234.334961
737.523438	4269.257813
736.339844	4365.381348
735.155273	4311.619629
733.969727	4445.667480
732.785156	4569.106445
731.599609	4447.846680
730.414063	4507.972656
729.227539	4428.941895
728.041992	4451.108398
726.855469	4304.700684
725.667969	4133.080566
724.481445	4113.177246
723.293945	4133.289063
722.106445	3970.246338
720.918945	4007.218018
719.730469	3968.423096
718.541992	3954.889648
717.353516	3892.989014
716.164063	3913.121582
714.975586	3886.996094
713.786133	3917.628906
712.595703	3933.538574
711.406250	3768.774902
710.215820	3780.510254
709.025391	3802.739014
707.833984	3793.467529
706.642578	3903.833496
705.451172	3827.395264
704.259766	3845.395752
703.068359	3867.582764
701.875977	3789.107422
700.683594	3882.574951
699.490234	3778.980469
698.297852	3828.402100
697.104492	3837.995850
695.910156	3876.907959
694.716797	3894.861816
693.522461	3852.094727
692.328125	3815.625977
691.132813	3973.782471
689.938477	3782.487793
688.743164	3815.082520
687.547852	3876.937500
686.351563	3878.135010
685.155273	3839.618896
683.958984	3842.913818
682.762695	3986.182617
681.565430	3857.852783
680.368164	3932.140137
679.170898	3866.513672
677.973633	3873.971436
676.775391	3793.780518
675.577148	3915.998047
674.378906	3904.666260
673.179688	3918.363281
671.980469	3846.574219
670.781250	3937.400146
669.581055	3940.659668
668.381836	3998.086670
667.181641	4057.569580
665.980469	4048.303711
664.780273	4001.566162
663.579102	4160.918457
662.377930	4101.689453
661.175781	4125.709473
659.973633	3993.713623
658.771484	3994.871338
657.569336	4083.350342
656.367188	4067.857422
655.164063	4125.105957
653.960938	4084.677979
652.756836	4114.892578
651.552734	4035.027588
650.348633	4088.077393
649.144531	4058.072754
647.939453	4069.586914
646.735352	4074.871094
645.529297	4024.146484
644.324219	3975.518799
643.118164	4026.433594
641.912109	4164.385254
640.706055	3964.473633
639.499023	4038.145996
638.292969	4043.427002
637.084961	4023.853760
635.877930	3923.540771
634.669922	4071.673096
633.461914	4010.715820
632.253906	3883.577393
631.044922	4031.615234
629.836914	3966.572510
628.626953	3971.857910
627.417969	3929.596924
626.208008	3905.954834
624.998047	3958.771484
623.788086	3875.228271
622.577148	3884.657715
621.366211	3931.247559
620.155273	3965.430176
618.944336	4018.170654
617.732422	4000.734375
616.520508	3954.426514
615.308594	3928.762939
614.095703	3985.585938
612.882813	3906.330566
611.669922	3860.086182
610.457031	3900.401123
609.243164	3948.937012
608.029297	3880.059814
606.815430	3895.633301
605.600586	3977.072266
604.385742	3912.351807
603.170898	3967.000000
601.955078	3889.968750
600.740234	3913.747070
599.524414	3902.559814
598.307617	3961.270020
597.091797	3855.537598
595.875000	3949.161133
594.658203	3794.178467
593.440430	3887.772217
592.222656	3884.818115
591.004883	3957.819092
589.787109	3928.169189
588.568359	3966.244141
587.349609	3899.680664
586.130859	3921.336670
584.912109	3879.419189
583.692383	3915.418945
582.472656	3887.868164
581.251953	3958.682129
580.032227	3927.036377
578.811523	4024.432617
577.589844	3857.645264
576.369141	3940.682129
575.147461	4042.100098
573.925781	3930.670166
572.703125	3987.037842
571.481445	3920.666504
570.258789	3846.146729
569.035156	3775.749756
567.812500	3919.982910
566.588867	4021.239258
565.365234	4010.092529
564.140625	4060.221436
562.916992	3914.305176
561.692383	3986.888184
560.466797	3998.208984
559.242188	3940.148193
558.016602	3945.354004
556.791016	3981.149902
555.564453	4029.163574
554.337891	4091.424561
553.111328	4090.475098
551.884766	4038.585205
550.657227	4080.428223
549.429688	4000.050537
548.202148	4009.303467
546.974609	4079.623779
545.746094	4066.465332
544.517578	4039.069336
543.288086	4066.612305
542.058594	4100.244141
540.829102	4227.395020
539.599609	4193.887207
538.370117	4162.427246
537.139648	4074.086670
535.909180	4144.243164
534.677734	4135.157227
533.446289	4158.563477
532.214844	4214.440430
530.983398	4178.958984
529.750977	4115.085449
528.519531	4128.330566
527.286133	4155.767090
526.053711	4168.996094
524.820313	4245.063965
523.586914	4233.944336
522.353516	4263.355957
521.119141	4288.702148
519.884766	4307.959961
518.650391	4246.212891
517.415039	4172.347168
516.179688	4228.049316
514.944336	4216.950195
513.708984	4260.477539
