#Wave		#Intensity
1585.210938	27194.367188
1584.209961	27311.757813
1583.208984	27273.636719
1582.208008	27347.876953
1581.206055	27234.878906
1580.204102	27012.121094
1579.202148	26999.041016
1578.200195	26896.160156
1577.198242	27139.992188
1576.195313	27049.589844
1575.192383	26919.337891
1574.189453	26901.298828
1573.186523	26549.345703
1572.182617	26603.640625
1571.178711	26712.712891
1570.174805	26732.085938
1569.170898	26699.160156
1568.166992	26569.162109
1567.162109	26588.548828
1566.158203	26640.273438
1565.153320	26376.021484
1564.147461	26619.292969
1563.142578	26738.119141
1562.136719	26767.390625
1561.130859	26746.933594
1560.125000	26748.851563
1559.119141	27158.265625
1558.113281	27194.873047
1557.106445	27333.296875
1556.099609	27655.421875
1555.092773	28205.816406
1554.084961	27864.882813
1553.078125	28491.937500
1552.070313	28754.001953
1551.062500	29147.429688
1550.054688	29406.767578
1549.045898	30499.144531
1548.038086	30775.447266
1547.029297	31534.955078
1546.020508	31929.873047
1545.011719	32800.316406
1544.001953	33388.015625
1542.992188	34059.667969
1541.982422	34679.050781
1540.972656	35431.847656
1539.962891	35805.660156
1538.952148	36481.203125
1537.942383	36995.656250
1536.931641	36461.152344
1535.919922	36787.449219
1534.909180	36473.253906
1533.897461	35983.675781
1532.886719	35615.402344
1531.874023	34720.976563
1530.862305	33938.089844
1529.850586	33350.644531
1528.837891	32741.214844
1527.825195	31912.308594
1526.812500	31276.277344
1525.799805	31037.824219
1524.786133	29997.593750
1523.772461	29613.962891
1522.758789	29336.537109
1521.745117	28834.841797
1520.731445	28318.558594
1519.716797	28061.289063
1518.702148	27915.017578
1517.687500	27948.656250
1516.672852	27758.125000
1515.657227	27715.437500
1514.642578	27771.251953
1513.626953	27568.564453
1512.610352	27720.371094
1511.594727	27763.843750
1510.579102	27617.863281
1509.562500	27917.142578
1508.545898	27564.619141
1507.529297	27701.511719
1506.511719	27548.285156
1505.494141	28184.019531
1504.477539	27568.816406
1503.458984	27609.781250
1502.441406	28046.158203
1501.423828	27735.855469
1500.405273	27536.158203
1499.386719	27626.181641
1498.368164	27794.697266
1497.348633	27764.402344
1496.330078	27756.197266
1495.310547	27480.666016
1494.291016	27825.613281
1493.271484	27496.246094
1492.250977	27652.314453
1491.231445	27845.074219
1490.210938	27868.705078
1489.190430	27877.625000
1488.168945	27724.908203
1487.148438	27924.833984
1486.126953	27879.878906
1485.105469	28248.560547
1484.083984	28152.167969
1483.061523	27911.474609
1482.040039	28008.416016
1481.017578	28171.343750
1479.995117	28598.255859
1478.971680	28809.878906
1477.949219	29361.117188
1476.925781	29020.281250
1475.902344	29654.302734
1474.878906	29936.355469
1473.855469	30486.896484
1472.831055	31242.281250
1471.806641	31638.544922
1470.782227	32327.486328
1469.757813	32957.582031
1468.733398	33458.132813
1467.708008	33965.789063
1466.682617	35148.648438
1465.657227	35797.132813
1464.631836	36620.835938
1463.605469	37765.851563
1462.579102	38564.437500
1461.552734	39562.421875
1460.526367	41066.539063
1459.500000	42143.933594
1458.472656	43281.738281
1457.445313	43686.500000
1456.417969	44134.886719
1455.390625	44541.730469
1454.362305	44371.953125
1453.334961	44331.128906
1452.306641	44103.109375
1451.277344	43250.480469
1450.249023	42461.386719
1449.219727	41247.414063
1448.191406	39684.132813
1447.162109	38573.242188
1446.131836	37479.808594
1445.102539	36835.957031
1444.072266	35711.781250
1443.041992	34670.578125
1442.011719	33804.492188
1440.981445	33096.437500
1439.950195	32529.335938
1438.918945	32134.623047
1437.887695	31131.597656
1436.856445	30902.146484
1435.825195	30556.476563
1434.792969	30322.390625
1433.760742	29708.119141
1432.728516	29798.810547
1431.696289	29320.484375
1430.663086	29195.773438
1429.629883	28804.894531
1428.596680	28389.980469
1427.563477	28512.291016
1426.530273	28324.960938
1425.496094	27953.925781
1424.461914	27554.033203
1423.427734	27323.503906
1422.393555	27409.652344
1421.358398	26751.587891
1420.323242	26758.099609
1419.288086	26738.039063
1418.252930	26346.132813
1417.217773	26372.031250
1416.181641	26516.187500
1415.145508	26479.294922
1414.109375	26746.410156
1413.073242	26461.033203
1412.036133	26995.726563
1411.000000	26792.392578
1409.962891	26991.714844
1408.924805	27275.306641
1407.887695	27421.429688
1406.849609	28063.767578
1405.812500	28474.611328
1404.773438	29171.845703
1403.735352	29611.173828
1402.697266	30201.964844
1401.658203	30631.263672
1400.619141	30706.685547
1399.580078	31179.000000
1398.540039	31364.906250
1397.500977	31343.939453
1396.460938	31767.736328
1395.420898	31496.714844
1394.380859	31492.548828
1393.339844	31361.042969
1392.298828	31066.250000
1391.257813	31074.177734
1390.216797	31432.660156
1389.175781	31061.210938
1388.133789	30615.511719
1387.091797	30906.669922
1386.049805	31240.888672
1385.007813	31279.939453
1383.964844	31666.695313
1382.922852	31732.009766
1381.879883	32188.019531
1380.835938	32500.042969
1379.792969	33101.859375
1378.749023	33411.160156
1377.706055	33842.480469
1376.661133	33718.074219
1375.617188	33900.160156
1374.573242	33917.011719
1373.528320	34469.902344
1372.483398	34386.132813
1371.438477	34642.074219
1370.392578	34969.652344
1369.347656	35000.597656
1368.301758	34828.328125
1367.255859	34832.992188
1366.208984	35074.222656
1365.163086	35095.554688
1364.116211	35011.777344
1363.069336	35577.589844
1362.022461	35395.851563
1360.974609	35455.281250
1359.927734	35471.726563
1358.879883	35693.363281
1357.832031	36005.558594
1356.783203	36274.687500
1355.735352	36276.628906
1354.686523	36927.039063
1353.637695	37021.796875
1352.588867	37893.398438
1351.539063	38297.648438
1350.490234	39078.093750
1349.440430	39889.167969
1348.390625	41023.730469
1347.339844	41422.210938
1346.290039	42577.390625
1345.239258	43132.425781
1344.188477	44132.113281
1343.137695	45426.328125
1342.085938	46004.187500
1341.034180	46348.800781
1339.982422	46959.496094
1338.930664	47900.281250
1337.878906	48325.054688
1336.826172	48215.136719
1335.773438	48832.042969
1334.720703	48665.070313
1333.667969	48946.867188
1332.614258	48224.507813
1331.561523	48252.347656
1330.507813	48147.308594
1329.453125	47195.468750
1328.399414	46412.410156
1327.344727	46096.781250
1326.290039	45522.890625
1325.235352	45129.363281
1324.180664	44323.687500
1323.125000	44153.265625
1322.070313	43769.742188
1321.014648	43862.367188
1319.958008	43614.011719
1318.902344	43084.070313
1317.845703	43008.742188
1316.789063	42240.164063
1315.732422	41933.207031
1314.675781	40874.261719
1313.618164	40447.117188
1312.560547	40020.148438
1311.502930	38867.722656
1310.445313	37867.015625
1309.386719	36821.839844
1308.329102	35902.296875
1307.270508	34650.140625
1306.210938	33887.273438
1305.152344	33641.707031
1304.092773	32492.298828
1303.033203	32006.439453
1301.973633	31690.642578
1300.914063	31339.595703
1299.853516	31130.185547
1298.792969	30739.318359
1297.732422	30247.257813
1296.671875	30012.279297
1295.611328	29595.972656
1294.549805	29596.794922
1293.488281	29727.148438
1292.426758	29318.222656
1291.364258	29436.804688
1290.302734	29715.386719
1289.240234	29412.609375
1288.177734	29140.542969
1287.114258	29193.191406
1286.051758	29271.685547
1284.988281	29296.066406
1283.924805	29167.638672
1282.861328	29093.318359
1281.796875	28972.033203
1280.732422	29076.320313
1279.667969	29349.671875
1278.603516	29071.070313
1277.539063	29020.314453
1276.473633	29171.439453
1275.408203	29214.548828
1274.342773	29541.533203
1273.277344	29204.531250
1272.210938	29545.447266
1271.145508	29527.468750
1270.079102	29711.101563
1269.011719	29437.621094
1267.945313	29518.087891
1266.877930	29279.900391
1265.810547	28943.437500
1264.743164	28738.253906
1263.674805	28563.589844
1262.607422	28403.044922
1261.539063	28249.585938
1260.470703	27972.179688
1259.401367	27449.265625
1258.333008	27286.744141
1257.263672	26962.947266
1256.194336	26802.931641
1255.125000	26481.707031
1254.054688	26223.710938
1252.985352	25961.150391
1251.915039	25521.177734
1250.843750	25389.650391
1249.773438	25143.771484
1248.702148	24890.992188
1247.630859	24745.673828
1246.559570	24693.750000
1245.488281	24389.898438
1244.416016	24559.640625
1243.343750	24398.187500
1242.271484	24448.953125
1241.199219	24087.132813
1240.125977	23911.892578
1239.053711	24146.783203
1237.980469	24178.917969
1236.906250	24287.888672
1235.833008	23961.402344
1234.758789	23970.269531
1233.684570	24067.572266
1232.610352	24048.488281
1231.536133	24278.333984
1230.460938	23877.757813
1229.385742	24049.404297
1228.310547	24011.730469
1227.235352	24076.347656
1226.159180	24085.160156
1225.083008	24049.822266
1224.006836	24330.416016
1222.930664	24360.064453
1221.853516	24552.234375
1220.777344	24437.890625
1219.700195	24701.908203
1218.622070	24724.482422
1217.544922	24772.566406
1216.466797	24957.474609
1215.388672	25297.673828
1214.310547	25336.324219
1213.232422	26054.125000
1212.153320	26025.384766
1211.074219	26096.287109
1209.995117	26102.294922
1208.916016	26518.228516
1207.835938	26514.876953
1206.755859	26465.224609
1205.675781	26579.921875
1204.595703	26652.914063
1203.514648	26367.277344
1202.434570	26121.082031
1201.353516	26263.496094
1200.271484	26156.146484
1199.190430	25937.886719
1198.108398	25943.890625
1197.026367	25649.517578
1195.944336	25486.939453
1194.862305	25266.691406
1193.779297	24926.464844
1192.696289	24771.066406
1191.613281	24558.031250
1190.530273	24363.546875
1189.446289	23963.810547
1188.362305	24044.017578
1187.278320	23681.416016
1186.194336	23404.275391
1185.109375	23341.626953
1184.024414	23004.753906
1182.939453	23006.730469
1181.854492	22967.238281
1180.768555	23038.312500
1179.683594	22609.679688
1178.597656	22699.212891
1177.510742	22666.718750
1176.424805	22509.974609
1175.337891	22162.337891
1174.250977	22346.191406
1173.164063	22249.402344
1172.077148	22175.644531
1170.989258	22246.734375
1169.901367	22368.351563
1168.813477	22273.929688
1167.724609	22211.708984
1166.636719	22223.007813
1165.547852	22307.779297
1164.458984	22456.791016
1163.369141	22541.472656
1162.280273	22717.904297
1161.190430	23002.087891
1160.100586	23024.658203
1159.010742	22916.501953
1157.919922	23354.068359
1156.829102	23518.664063
1155.738281	23307.335938
1154.647461	23405.419922
1153.555664	23207.947266
1152.464844	23370.134766
1151.373047	23159.013672
1150.280273	23401.261719
1149.188477	23233.708984
1148.095703	23198.947266
1147.002930	22761.542969
1145.910156	23067.705078
1144.817383	22843.189453
1143.723633	22607.335938
1142.629883	22632.169922
1141.536133	22497.015625
1140.441406	22128.863281
1139.347656	22535.265625
1138.252930	22196.951172
1137.158203	22014.048828
1136.062500	22073.210938
1134.967773	22107.238281
1133.872070	21945.005859
1132.776367	22115.925781
1131.679688	22015.341797
1130.583984	22149.683594
1129.487305	22220.126953
1128.390625	21907.593750
1127.292969	22148.974609
1126.196289	22362.910156
1125.098633	22009.539063
1124.000977	22038.933594
1122.903320	22118.404297
1121.804688	22104.505859
1120.706055	22174.822266
1119.607422	21774.080078
1118.508789	22183.406250
1117.409180	21778.285156
1116.310547	21953.207031
1115.210938	21871.144531
1114.110352	21750.474609
1113.010742	21484.414063
1111.910156	21709.224609
1110.809570	21447.828125
1109.708984	21593.060547
1108.607422	21597.453125
1107.506836	21313.542969
1106.405273	21027.486328
1105.303711	21213.519531
1104.201172	21168.074219
1103.098633	21249.660156
1101.996094	21034.154297
1100.893555	20884.484375
1099.791016	20988.738281
1098.687500	20750.763672
1097.583984	20875.388672
1096.480469	20909.351563
1095.376953	21085.970703
1094.272461	21137.984375
1093.167969	21307.681641
1092.063477	21404.882813
1090.958008	21508.828125
1089.853516	21499.617188
1088.748047	21698.482422
1087.642578	21901.781250
1086.536133	22181.853516
1085.430664	22592.892578
1084.324219	23055.724609
1083.217773	23080.064453
1082.110352	23454.494141
1081.003906	23648.099609
1079.896484	24182.535156
1078.789063	24445.869141
1077.680664	24467.613281
1076.573242	24496.113281
1075.464844	24824.615234
1074.356445	24607.199219
1073.247070	24872.394531
1072.138672	24398.070313
1071.029297	24189.896484
1069.919922	24335.578125
1068.809570	23652.164063
1067.700195	23507.349609
1066.589844	23060.851563
1065.479492	23026.539063
1064.368164	22800.919922
1063.257813	22609.152344
1062.146484	22232.978516
1061.035156	22050.412109
1059.922852	21834.191406
1058.811523	21539.369141
1057.699219	21429.001953
1056.586914	21343.400391
1055.473633	21266.824219
1054.361328	21167.814453
1053.248047	20990.238281
1052.134766	20792.531250
1051.021484	20965.320313
1049.907227	20763.212891
1048.792969	20565.679688
1047.678711	20659.878906
1046.564453	20771.978516
1045.449219	20657.537109
1044.333984	20661.970703
1043.218750	20448.976563
1042.103516	20561.017578
1040.987305	20666.285156
1039.871094	20923.824219
1038.754883	20831.886719
1037.638672	20679.533203
1036.521484	21037.626953
1035.404297	21131.474609
1034.287109	20755.396484
1033.169922	20914.136719
1032.051758	20920.718750
1030.933594	21059.224609
1029.815430	21032.234375
1028.697266	20942.671875
1027.578125	21230.791016
1026.458984	20906.642578
1025.339844	21007.017578
1024.220703	20951.029297
1023.100586	20919.621094
1021.980469	20975.279297
1020.860352	21026.447266
1019.740234	21209.228516
1018.619141	21202.322266
1017.498047	21110.669922
1016.376953	20807.240234
1015.255859	20858.378906
1014.133789	20760.171875
1013.011719	20875.914063
1011.889648	20844.574219
1010.767578	21145.099609
1009.644531	20875.451172
1008.521484	20913.140625
1007.398438	20970.841797
1006.274414	20932.830078
1005.151367	20814.742188
1004.027344	20950.271484
1002.902344	20978.996094
1001.778320	21092.191406
1000.653320	21247.568359
999.528320	21260.648438
998.403320	21224.839844
997.278320	21289.003906
996.152344	21128.835938
995.026367	21286.244141
993.900391	21334.808594
992.773438	21250.189453
991.646484	21746.943359
990.519531	21961.744141
989.392578	22169.794922
988.265625	22022.970703
987.137695	22437.082031
986.009766	22731.320313
984.881836	22604.408203
983.752930	22413.300781
982.624023	22620.962891
981.495117	22609.302734
980.366211	22389.535156
979.236328	22377.927734
978.106445	22094.128906
976.976563	22241.884766
975.846680	21630.867188
974.715820	21785.291016
973.585938	21411.216797
972.454102	21421.935547
971.323242	21151.974609
970.191406	21277.636719
969.060547	21241.980469
967.927734	21011.988281
966.795898	20907.955078
965.663086	21320.533203
964.530273	21638.023438
963.397461	21262.505859
962.264648	21575.451172
961.130859	21383.175781
959.997070	21603.335938
958.863281	21618.369141
957.729492	21882.457031
956.594727	21899.621094
955.459961	21595.117188
954.325195	21334.800781
953.189453	21136.257813
952.053711	21131.548828
950.917969	20774.650391
949.782227	20787.625000
948.646484	20837.996094
947.509766	20743.160156
946.373047	20659.363281
945.235352	20670.146484
944.098633	20722.687500
942.960938	20627.957031
941.823242	20785.949219
940.685547	20577.009766
939.546875	20765.687500
938.408203	20862.056641
937.269531	20951.792969
936.129883	20997.593750
934.991211	20981.929688
933.851563	21218.560547
932.711914	21126.085938
931.571289	21535.808594
930.431641	21745.843750
929.291016	21692.759766
928.149414	21722.970703
927.008789	21744.400391
925.867188	21754.869141
924.725586	21679.923828
923.583984	21620.335938
922.441406	21328.750000
921.299805	21639.107422
920.157227	21268.876953
919.013672	20844.125000
917.871094	20767.285156
916.727539	20581.156250
915.583984	20550.312500
914.439453	20305.304688
913.295898	20326.972656
912.151367	20359.552734
911.006836	20287.283203
909.861328	20466.148438
908.716797	19985.656250
907.571289	19854.585938
906.424805	20096.701172
905.279297	20109.644531
904.132813	19996.076172
902.986328	19886.919922
901.839844	19934.775391
900.692383	19925.939453
899.545898	20202.570313
898.398438	19742.699219
897.250000	19792.716797
896.102539	20197.666016
894.954102	20149.582031
893.805664	20053.632813
892.656250	19885.910156
891.507813	20164.279297
890.358398	19926.996094
889.208984	19933.386719
888.058594	20152.847656
886.908203	19843.990234
885.758789	19900.375000
884.607422	19858.958984
883.457031	19795.835938
882.305664	19986.837891
881.154297	19739.152344
880.002930	19877.978516
878.850586	19814.902344
877.698242	20101.193359
876.545898	19638.935547
875.393555	19690.898438
874.240234	19833.906250
873.086914	19614.816406
871.933594	19521.531250
870.780273	19549.630859
869.625977	19460.732422
868.471680	19649.107422
867.317383	19354.507813
866.162109	19432.406250
865.007813	19248.371094
863.852539	19328.419922
862.696289	19228.863281
861.541016	19317.527344
860.384766	19609.425781
859.228516	19440.683594
858.072266	19297.955078
856.915039	19189.865234
855.757813	19202.812500
854.600586	19086.148438
853.442383	19403.607422
852.285156	19362.515625
851.126953	19381.880859
849.968750	19712.001953
848.809570	19431.369141
847.650391	19401.085938
846.491211	18999.876953
845.332031	19340.558594
844.171875	19303.845703
843.012695	19353.353516
841.851563	19504.109375
840.691406	19596.628906
839.530273	19400.511719
838.369141	19258.310547
837.208008	19159.228516
836.046875	19542.289063
834.884766	19404.451172
833.722656	19516.220703
832.560547	19303.169922
831.397461	19225.683594
830.234375	19466.400391
829.071289	19464.134766
827.908203	19356.576172
826.744141	19259.804688
825.580078	19188.851563
824.416016	19244.623047
823.251953	19373.361328
822.086914	19364.669922
820.921875	19615.634766
819.756836	19411.656250
818.590820	19377.218750
817.425781	19242.005859
816.259766	19443.453125
815.092773	19276.132813
813.926758	19603.914063
812.759766	19359.498047
811.592773	19410.791016
810.424805	19312.150391
809.257813	19633.195313
808.089844	19474.611328
806.920898	19352.478516
805.752930	19405.843750
804.583984	19345.812500
803.415039	19369.212891
802.246094	19289.970703
801.076172	19375.359375
799.906250	19185.017578
798.736328	19415.681641
797.566406	19150.648438
796.395508	19370.533203
795.224609	19389.607422
794.053711	19609.333984
792.881836	19961.279297
791.710938	20046.345703
790.538086	20263.634766
789.366211	20555.468750
788.194336	20864.224609
787.021484	21008.693359
785.848633	21057.185547
784.674805	21354.957031
783.500977	21192.441406
782.327148	20772.289063
781.153320	20703.669922
779.979492	20624.435547
778.804688	20543.107422
777.629883	20444.791016
776.454102	20374.173828
775.279297	20420.568359
774.103516	20286.193359
772.927734	20075.341797
771.750977	20636.130859
770.575195	20455.042969
769.398438	20441.873047
768.220703	20734.562500
767.043945	20874.222656
765.866211	21049.910156
764.688477	21448.384766
763.510742	21848.794922
762.332031	21930.785156
761.153320	22417.863281
759.974609	23157.070313
758.794922	24402.648438
757.616211	25316.990234
756.436523	26633.550781
755.255859	28769.433594
754.076172	31427.527344
752.895508	34651.945313
751.714844	38387.253906
750.533203	42264.785156
749.352539	46775.414063
748.170898	51590.757813
746.988281	54506.484375
745.806641	57084.625000
744.624023	58312.644531
743.441406	58762.214844
742.258789	57979.492188
741.075195	57503.492188
739.891602	56218.664063
738.708008	55656.687500
737.523438	55548.914063
736.339844	55639.613281
735.155273	55751.371094
733.969727	55143.582031
732.785156	53557.269531
731.599609	50586.082031
730.414063	47700.589844
729.227539	43484.156250
728.041992	40009.394531
726.855469	36104.281250
725.667969	32674.931641
724.481445	29866.343750
723.293945	27911.808594
722.106445	26286.566406
720.918945	25194.541016
719.730469	24172.451172
718.541992	23491.623047
717.353516	22581.859375
716.164063	22120.386719
714.975586	21577.136719
713.786133	21580.585938
712.595703	20926.341797
711.406250	20793.384766
710.215820	20929.324219
709.025391	20943.412109
707.833984	20531.330078
706.642578	20493.027344
705.451172	20458.937500
704.259766	20431.156250
703.068359	20602.638672
701.875977	20822.267578
700.683594	21050.179688
699.490234	21716.039063
698.297852	22081.937500
697.104492	23162.054688
695.910156	23965.197266
694.716797	24765.876953
693.522461	25260.529297
692.328125	25717.277344
691.132813	25648.580078
689.938477	25724.265625
688.743164	25500.814453
687.547852	24949.158203
686.351563	24583.822266
685.155273	23570.703125
683.958984	23178.683594
682.762695	22999.939453
681.565430	22271.945313
680.368164	22072.607422
679.170898	21858.746094
677.973633	22087.482422
676.775391	21727.636719
675.577148	21891.619141
674.378906	21423.517578
673.179688	21704.271484
671.980469	21424.064453
670.781250	21308.650391
669.581055	21314.156250
668.381836	20790.466797
667.181641	20987.716797
665.980469	20591.373047
664.780273	20492.931641
663.579102	20369.558594
662.377930	20287.859375
661.175781	20495.392578
659.973633	20465.701172
658.771484	20512.966797
657.569336	20547.734375
656.367188	20671.865234
655.164063	20997.517578
653.960938	21109.017578
652.756836	21397.025391
651.552734	21477.228516
650.348633	22404.490234
649.144531	22399.316406
647.939453	22618.269531
646.735352	22656.615234
645.529297	23060.017578
644.324219	23284.884766
643.118164	23055.583984
641.912109	23104.150391
640.706055	22893.644531
639.499023	22552.703125
638.292969	22114.562500
637.084961	21912.710938
635.877930	21742.005859
634.669922	21534.121094
633.461914	21402.902344
632.253906	21197.255859
631.044922	20917.236328
629.836914	20887.582031
628.626953	20758.695313
627.417969	20714.619141
626.208008	20548.628906
624.998047	20705.035156
623.788086	20570.107422
622.577148	20538.500000
621.366211	20566.785156
620.155273	20277.158203
618.944336	20334.378906
617.732422	20152.230469
616.520508	19966.037109
615.308594	19658.251953
614.095703	19814.527344
612.882813	19587.310547
611.669922	19483.851563
610.457031	19203.242188
609.243164	19143.177734
608.029297	19375.585938
606.815430	19284.621094
605.600586	19418.076172
604.385742	19055.478516
603.170898	18878.228516
601.955078	19281.162109
600.740234	19245.845703
599.524414	19368.869141
598.307617	19360.271484
597.091797	19359.896484
595.875000	19299.933594
594.658203	19478.289063
593.440430	19455.291016
592.222656	19167.429688
591.004883	19372.375000
589.787109	19125.708984
588.568359	19252.595703
587.349609	19014.275391
586.130859	18851.949219
584.912109	18915.244141
583.692383	18447.568359
582.472656	18914.673828
581.251953	18469.751953
580.032227	18969.408203
578.811523	18960.914063
577.589844	19112.134766
576.369141	19107.703125
575.147461	19655.863281
573.925781	19837.505859
572.703125	20268.636719
571.481445	20419.371094
570.258789	21111.890625
569.035156	21382.968750
567.812500	21733.628906
566.588867	22167.898438
565.365234	22479.396484
564.140625	22937.798828
562.916992	22999.861328
561.692383	23102.720703
560.466797	22989.191406
559.242188	22702.271484
558.016602	22376.726563
556.791016	22030.933594
555.564453	21679.183594
554.337891	21085.003906
553.111328	20705.099609
551.884766	20068.630859
550.657227	19522.087891
549.429688	19220.203125
548.202148	19134.292969
546.974609	18940.529297
545.746094	18903.568359
544.517578	18652.970703
543.288086	18884.623047
542.058594	18872.105469
540.829102	18818.923828
539.599609	18719.007813
538.370117	18657.755859
537.139648	18519.314453
535.909180	18447.976563
534.677734	18589.927734
533.446289	18455.656250
532.214844	18144.830078
530.983398	18410.556641
529.750977	18211.484375
528.519531	18264.060547
527.286133	18211.142578
526.053711	18048.751953
524.820313	18095.244141
523.586914	18062.667969
522.353516	18240.841797
521.119141	18226.476563
519.884766	18155.408203
518.650391	18007.423828
517.415039	17906.070313
516.179688	17841.195313
514.944336	17735.876953
513.708984	17921.923828
