#Wave		#Intensity
1585.210938	17378.619141
1584.209961	17273.718750
1583.208984	17220.197266
1582.208008	17346.453125
1581.206055	17455.183594
1580.204102	17102.187500
1579.202148	17330.683594
1578.200195	17294.666016
1577.198242	17405.808594
1576.195313	17469.527344
1575.192383	17453.443359
1574.189453	17287.818359
1573.186523	17368.962891
1572.182617	17365.365234
1571.178711	17369.242188
1570.174805	16944.765625
1569.170898	16986.074219
1568.166992	17176.728516
1567.162109	17155.748047
1566.158203	17020.312500
1565.153320	16929.714844
1564.147461	17090.371094
1563.142578	16982.386719
1562.136719	17289.656250
1561.130859	17395.449219
1560.125000	17391.847656
1559.119141	17579.572266
1558.113281	18065.326172
1557.106445	18386.951172
1556.099609	18455.158203
1555.092773	18885.806641
1554.084961	19023.380859
1553.078125	19275.052734
1552.070313	19402.562500
1551.062500	19584.591797
1550.054688	19764.066406
1549.045898	19993.056641
1548.038086	20048.416016
1547.029297	20425.966797
1546.020508	20543.162109
1545.011719	20660.308594
1544.001953	21101.898438
1542.992188	21523.492188
1541.982422	21395.236328
1540.972656	22041.863281
1539.962891	22190.748047
1538.952148	22332.148438
1537.942383	22475.962891
1536.931641	22646.923828
1535.919922	22389.996094
1534.909180	22513.925781
1533.897461	22084.095703
1532.886719	21805.197266
1531.874023	21489.349609
1530.862305	20869.775391
1529.850586	20885.212891
1528.837891	20404.302734
1527.825195	19975.437500
1526.812500	19603.519531
1525.799805	19199.671875
1524.786133	18936.628906
1523.772461	18732.896484
1522.758789	18233.292969
1521.745117	17960.748047
1520.731445	17942.236328
1519.716797	17746.269531
1518.702148	17355.708984
1517.687500	17605.878906
1516.672852	17560.359375
1515.657227	17357.242188
1514.642578	17622.027344
1513.626953	17596.222656
1512.610352	17486.748047
1511.594727	17497.890625
1510.579102	17408.160156
1509.562500	17490.642578
1508.545898	17526.367188
1507.529297	17628.457031
1506.511719	17361.787109
1505.494141	17576.917969
1504.477539	17558.535156
1503.458984	17338.716797
1502.441406	17418.630859
1501.423828	17567.269531
1500.405273	17625.007813
1499.386719	17640.992188
1498.368164	17566.169922
1497.348633	17631.230469
1496.330078	17840.992188
1495.310547	17506.203125
1494.291016	17737.968750
1493.271484	17356.759766
1492.250977	17833.562500
1491.231445	17653.429688
1490.210938	17573.820313
1489.190430	17626.517578
1488.168945	17737.966797
1487.148438	17587.380859
1486.126953	17757.541016
1485.105469	17734.281250
1484.083984	18029.132813
1483.061523	17790.537109
1482.040039	17657.214844
1481.017578	18010.585938
1479.995117	18187.777344
1478.971680	18130.228516
1477.949219	18475.947266
1476.925781	18645.597656
1475.902344	18739.447266
1474.878906	19280.214844
1473.855469	19342.146484
1472.831055	19638.423828
1471.806641	20205.515625
1470.782227	20203.763672
1469.757813	20814.417969
1468.733398	21688.265625
1467.708008	21820.341797
1466.682617	22735.068359
1465.657227	23542.150391
1464.631836	24161.220703
1463.605469	25067.578125
1462.579102	25866.361328
1461.552734	26564.941406
1460.526367	27248.621094
1459.500000	27617.923828
1458.472656	28116.089844
1457.445313	28458.287109
1456.417969	28211.484375
1455.390625	27840.710938
1454.362305	27849.525391
1453.334961	27425.478516
1452.306641	26836.281250
1451.277344	26444.218750
1450.249023	25702.359375
1449.219727	24941.371094
1448.191406	24047.087891
1447.162109	23226.035156
1446.131836	22888.542969
1445.102539	22201.595703
1444.072266	21646.003906
1443.041992	20983.865234
1442.011719	20681.080078
1440.981445	20553.072266
1439.950195	20121.964844
1438.918945	20088.685547
1437.887695	19825.121094
1436.856445	19314.447266
1435.825195	19230.466797
1434.792969	19219.201172
1433.760742	18689.591797
1432.728516	18588.839844
1431.696289	18490.546875
1430.663086	18455.234375
1429.629883	18216.638672
1428.596680	18077.349609
1427.563477	17739.744141
1426.530273	17745.728516
1425.496094	17621.128906
1424.461914	17520.757813
1423.427734	17340.660156
1422.393555	17395.050781
1421.358398	17144.984375
1420.323242	16967.490234
1419.288086	17273.097656
1418.252930	16844.525391
1417.217773	16935.169922
1416.181641	16777.171875
1415.145508	16988.447266
1414.109375	17088.654297
1413.073242	17118.865234
1412.036133	17366.109375
1411.000000	17531.271484
1409.962891	17718.058594
1408.924805	17678.216797
1407.887695	18349.224609
1406.849609	18174.355469
1405.812500	18876.291016
1404.773438	19231.166016
1403.735352	19638.859375
1402.697266	20111.373047
1401.658203	20383.941406
1400.619141	20644.363281
1399.580078	21328.062500
1398.540039	20897.912109
1397.500977	21218.175781
1396.460938	20927.662109
1395.420898	21142.025391
1394.380859	20906.917969
1393.339844	21041.908203
1392.298828	20516.263672
1391.257813	20230.998047
1390.216797	20385.248047
1389.175781	20244.160156
1388.133789	20446.341797
1387.091797	20650.839844
1386.049805	20929.621094
1385.007813	21073.962891
1383.964844	21582.751953
1382.922852	22081.738281
1381.879883	22587.705078
1380.835938	22832.232422
1379.792969	23280.322266
1378.749023	23704.267578
1377.706055	24104.083984
1376.661133	24144.544922
1375.617188	24453.123047
1374.573242	24239.771484
1373.528320	24557.771484
1372.483398	24483.253906
1371.438477	24375.275391
1370.392578	23624.005859
1369.347656	23719.492188
1368.301758	24209.380859
1367.255859	23750.203125
1366.208984	23217.138672
1365.163086	23212.281250
1364.116211	22894.521484
1363.069336	22853.910156
1362.022461	22612.755859
1360.974609	22276.218750
1359.927734	22624.769531
1358.879883	22586.628906
1357.832031	22429.222656
1356.783203	22827.605469
1355.735352	22767.978516
1354.686523	22903.871094
1353.637695	23154.117188
1352.588867	23692.609375
1351.539063	24059.328125
1350.490234	24706.978516
1349.440430	25318.630859
1348.390625	25934.787109
1347.339844	26607.818359
1346.290039	27318.646484
1345.239258	27834.048828
1344.188477	28403.953125
1343.137695	29394.625000
1342.085938	29918.773438
1341.034180	30525.917969
1339.982422	31090.015625
1338.930664	31784.587891
1337.878906	32015.527344
1336.826172	32510.058594
1335.773438	32500.859375
1334.720703	32612.767578
1333.667969	32655.775391
1332.614258	32273.890625
1331.561523	31842.326172
1330.507813	31724.125000
1329.453125	31321.318359
1328.399414	30740.808594
1327.344727	30122.603516
1326.290039	29928.994141
1325.235352	29242.480469
1324.180664	28833.500000
1323.125000	28711.351563
1322.070313	28203.166016
1321.014648	27718.875000
1319.958008	27833.794922
1318.902344	27098.865234
1317.845703	27393.726563
1316.789063	26704.150391
1315.732422	26372.074219
1314.675781	25694.826172
1313.618164	25400.931641
1312.560547	25187.539063
1311.502930	24525.144531
1310.445313	24042.625000
1309.386719	23352.394531
1308.329102	22844.337891
1307.270508	22256.199219
1306.210938	21758.027344
1305.152344	21458.361328
1304.092773	20953.486328
1303.033203	20677.708984
1301.973633	20208.593750
1300.914063	20095.833984
1299.853516	19843.990234
1298.792969	19795.009766
1297.732422	19566.902344
1296.671875	19741.880859
1295.611328	19657.607422
1294.549805	19549.808594
1293.488281	19498.578125
1292.426758	19616.906250
1291.364258	19217.261719
1290.302734	19201.435547
1289.240234	19204.441406
1288.177734	19202.738281
1287.114258	19257.486328
1286.051758	19281.638672
1284.988281	19430.392578
1283.924805	19501.509766
1282.861328	19624.300781
1281.796875	19782.283203
1280.732422	20224.453125
1279.667969	20184.945313
1278.603516	20601.009766
1277.539063	20800.904297
1276.473633	21050.005859
1275.408203	21479.699219
1274.342773	21522.078125
1273.277344	21505.794922
1272.210938	21470.753906
1271.145508	21543.585938
1270.079102	21290.533203
1269.011719	20993.054688
1267.945313	20838.640625
1266.877930	20330.531250
1265.810547	19986.593750
1264.743164	19542.105469
1263.674805	19130.582031
1262.607422	18780.091797
1261.539063	18453.150391
1260.470703	18299.492188
1259.401367	17949.396484
1258.333008	17746.791016
1257.263672	17413.326172
1256.194336	17461.064453
1255.125000	17204.929688
1254.054688	16909.175781
1252.985352	16711.673828
1251.915039	16680.095703
1250.843750	16426.673828
1249.773438	16528.253906
1248.702148	16541.083984
1247.630859	16339.193359
1246.559570	16193.387695
1245.488281	15858.683594
1244.416016	15974.262695
1243.343750	15889.251953
1242.271484	16009.436523
1241.199219	15819.563477
1240.125977	15678.707031
1239.053711	15882.731445
1237.980469	15637.097656
1236.906250	15943.511719
1235.833008	15751.519531
1234.758789	15797.052734
1233.684570	15840.238281
1232.610352	16102.131836
1231.536133	15786.964844
1230.460938	15771.973633
1229.385742	15861.630859
1228.310547	15783.853516
1227.235352	15887.414063
1226.159180	15672.550781
1225.083008	15929.434570
1224.006836	16035.216797
1222.930664	16043.410156
1221.853516	16033.022461
1220.777344	15976.209961
1219.700195	16269.883789
1218.622070	16296.578125
1217.544922	16481.017578
1216.466797	16275.707031
1215.388672	16369.628906
1214.310547	16628.123047
1213.232422	16765.968750
1212.153320	16725.308594
1211.074219	16937.214844
1209.995117	17042.472656
1208.916016	17087.466797
1207.835938	17445.033203
1206.755859	17420.470703
1205.675781	17476.923828
1204.595703	16991.869141
1203.514648	17358.400391
1202.434570	17185.835938
1201.353516	17323.224609
1200.271484	17347.261719
1199.190430	17267.267578
1198.108398	17233.529297
1197.026367	17271.429688
1195.944336	16872.710938
1194.862305	16857.548828
1193.779297	16507.576172
1192.696289	16393.228516
1191.613281	16221.226563
1190.530273	15959.299805
1189.446289	15845.138672
1188.362305	15913.246094
1187.278320	15863.711914
1186.194336	15535.218750
1185.109375	15428.156250
1184.024414	15217.430664
1182.939453	15094.350586
1181.854492	14922.946289
1180.768555	15198.422852
1179.683594	14934.960938
1178.597656	14837.366211
1177.510742	14774.336914
1176.424805	14669.912109
1175.337891	14719.676758
1174.250977	14702.712891
1173.164063	14708.751953
1172.077148	14498.664063
1170.989258	14546.118164
1169.901367	14667.092773
1168.813477	14213.588867
1167.724609	14754.970703
1166.636719	14460.113281
1165.547852	14548.850586
1164.458984	14610.000000
1163.369141	14597.674805
1162.280273	14828.595703
1161.190430	14862.110352
1160.100586	14760.278320
1159.010742	14972.665039
1157.919922	14969.439453
1156.829102	14810.339844
1155.738281	15008.824219
1154.647461	15287.416992
1153.555664	15098.567383
1152.464844	15216.697266
1151.373047	15208.835938
1150.280273	15189.530273
1149.188477	15270.939453
1148.095703	15439.267578
1147.002930	15429.072266
1145.910156	15336.536133
1144.817383	15102.254883
1143.723633	15179.015625
1142.629883	15141.449219
1141.536133	15371.285156
1140.441406	15139.477539
1139.347656	15033.410156
1138.252930	14941.089844
1137.158203	14768.889648
1136.062500	14831.900391
1134.967773	14657.513672
1133.872070	14768.438477
1132.776367	14822.278320
1131.679688	14595.542969
1130.583984	14690.442383
1129.487305	14687.262695
1128.390625	14841.363281
1127.292969	14619.372070
1126.196289	14714.178711
1125.098633	14535.589844
1124.000977	14609.874023
1122.903320	14470.090820
1121.804688	14535.249023
1120.706055	14447.887695
1119.607422	14722.364258
1118.508789	14462.097656
1117.409180	14399.824219
1116.310547	14485.386719
1115.210938	14520.894531
1114.110352	14240.435547
1113.010742	14555.498047
1111.910156	14559.154297
1110.809570	14517.376953
1109.708984	14146.315430
1108.607422	14354.404297
1107.506836	14401.227539
1106.405273	14259.655273
1105.303711	14356.395508
1104.201172	14090.120117
1103.098633	14073.448242
1101.996094	14034.106445
1100.893555	14042.390625
1099.791016	13923.739258
1098.687500	13936.573242
1097.583984	14006.040039
1096.480469	13907.856445
1095.376953	13832.361328
1094.272461	13815.764648
1093.167969	14190.785156
1092.063477	14106.220703
1090.958008	14064.682617
1089.853516	14059.356445
1088.748047	14029.152344
1087.642578	14150.459961
1086.536133	14117.986328
1085.430664	14304.763672
1084.324219	14511.796875
1083.217773	14867.845703
1082.110352	14552.899414
1081.003906	15130.086914
1079.896484	15063.568359
1078.789063	15143.797852
1077.680664	15293.950195
1076.573242	15092.060547
1075.464844	15165.460938
1074.356445	15162.147461
1073.247070	15427.153320
1072.138672	15274.999023
1071.029297	15271.661133
1069.919922	15042.993164
1068.809570	14809.917969
1067.700195	14714.334961
1066.589844	14832.714844
1065.479492	14833.972656
1064.368164	14736.192383
1063.257813	14469.677734
1062.146484	14383.265625
1061.035156	14438.600586
1059.922852	14201.557617
1058.811523	14292.877930
1057.699219	14080.695313
1056.586914	14019.178711
1055.473633	14049.809570
1054.361328	13752.452148
1053.248047	13895.421875
1052.134766	14029.344727
1051.021484	13817.491211
1049.907227	13724.683594
1048.792969	13867.528320
1047.678711	13736.609375
1046.564453	13733.594727
1045.449219	13865.127930
1044.333984	13776.889648
1043.218750	13686.446289
1042.103516	13739.465820
1040.987305	13575.131836
1039.871094	13854.389648
1038.754883	13833.429688
1037.638672	13922.188477
1036.521484	13641.551758
1035.404297	13828.785156
1034.287109	13843.644531
1033.169922	13970.347656
1032.051758	14110.414063
1030.933594	14111.782227
1029.815430	14063.964844
1028.697266	13958.055664
1027.578125	14176.207031
1026.458984	14110.531250
1025.339844	13977.875000
1024.220703	14133.346680
1023.100586	14288.749023
1021.980469	14274.439453
1020.860352	14081.605469
1019.740234	14210.138672
1018.619141	14354.228516
1017.498047	14384.515625
1016.376953	14457.151367
1015.255859	14355.878906
1014.133789	14493.118164
1013.011719	14155.691406
1011.889648	14099.102539
1010.767578	14334.301758
1009.644531	14193.080078
1008.521484	14414.794922
1007.398438	14554.057617
1006.274414	14208.155273
1005.151367	14160.521484
1004.027344	14326.435547
1002.902344	14205.409180
1001.778320	14088.881836
1000.653320	14425.851563
999.528320	14411.549805
998.403320	14279.498047
997.278320	14369.633789
996.152344	14175.463867
995.026367	14440.986328
993.900391	14415.590820
992.773438	14536.682617
991.646484	14462.459961
990.519531	14519.153320
989.392578	14653.444336
988.265625	14681.241211
987.137695	14795.482422
986.009766	15024.924805
984.881836	14786.708008
983.752930	15084.725586
982.624023	14826.665039
981.495117	15033.747070
980.366211	14924.142578
979.236328	15155.457031
978.106445	14908.667969
976.976563	14810.223633
975.846680	14583.526367
974.715820	14496.251953
973.585938	14647.801758
972.454102	14447.814453
971.323242	14263.383789
970.191406	14543.032227
969.060547	14254.835938
967.927734	14161.118164
966.795898	14263.955078
965.663086	14104.047852
964.530273	14134.016602
963.397461	14208.102539
962.264648	14229.208984
961.130859	14329.705078
959.997070	14553.640625
958.863281	14371.828125
957.729492	14379.649414
956.594727	14400.686523
955.459961	14382.057617
954.325195	14226.871094
953.189453	14247.925781
952.053711	14249.154297
950.917969	14050.074219
949.782227	14040.339844
948.646484	14074.612305
947.509766	13904.296875
946.373047	13958.375000
945.235352	14106.972656
944.098633	13921.373047
942.960938	14083.096680
941.823242	14308.466797
940.685547	14307.469727
939.546875	14378.948242
938.408203	14301.081055
937.269531	14253.981445
936.129883	14683.171875
934.991211	14548.232422
933.851563	14382.639648
932.711914	14835.635742
931.571289	14599.878906
930.431641	14719.386719
929.291016	14777.466797
928.149414	14973.575195
927.008789	14794.956055
925.867188	14857.357422
924.725586	14897.830078
923.583984	14506.971680
922.441406	14621.925781
921.299805	14340.722656
920.157227	14236.866211
919.013672	14240.240234
917.871094	13994.298828
916.727539	13914.637695
915.583984	13957.424805
914.439453	13506.272461
913.295898	13713.004883
912.151367	13452.159180
911.006836	13532.134766
909.861328	13400.272461
908.716797	13563.176758
907.571289	13315.689453
906.424805	13609.459961
905.279297	13506.053711
904.132813	13254.379883
902.986328	13587.214844
901.839844	13510.040039
900.692383	13450.336914
899.545898	13347.076172
898.398438	13472.616211
897.250000	13417.314453
896.102539	13427.364258
894.954102	13557.153320
893.805664	13754.358398
892.656250	13444.424805
891.507813	13872.188477
890.358398	13560.189453
889.208984	13441.879883
888.058594	13569.308594
886.908203	13579.297852
885.758789	13526.256836
884.607422	13321.145508
883.457031	13478.894531
882.305664	13512.779297
881.154297	13344.718750
880.002930	13265.734375
878.850586	13290.959961
877.698242	13159.945313
876.545898	13200.366211
875.393555	12965.325195
874.240234	13172.732422
873.086914	13124.237305
871.933594	13051.921875
870.780273	13116.151367
869.625977	13169.518555
868.471680	13220.695313
867.317383	12953.531250
866.162109	13134.626953
865.007813	12975.822266
863.852539	12879.842773
862.696289	13032.703125
861.541016	13047.064453
860.384766	12977.080078
859.228516	13015.226563
858.072266	13232.759766
856.915039	12708.962891
855.757813	12926.464844
854.600586	12955.943359
853.442383	13026.439453
852.285156	13092.583984
851.126953	12929.888672
849.968750	13138.457031
848.809570	13243.364258
847.650391	12966.414063
846.491211	13136.009766
845.332031	12887.237305
844.171875	13037.371094
843.012695	13094.763672
841.851563	13098.262695
840.691406	12976.816406
839.530273	13258.165039
838.369141	13039.840820
837.208008	13155.285156
836.046875	13281.438477
834.884766	13063.253906
833.722656	13344.258789
832.560547	12934.737305
831.397461	12936.105469
830.234375	13032.061523
829.071289	13186.005859
827.908203	13178.716797
826.744141	13074.754883
825.580078	13129.779297
824.416016	13388.777344
823.251953	13323.479492
822.086914	13337.625000
820.921875	13308.846680
819.756836	13198.553711
818.590820	13420.772461
817.425781	13325.513672
816.259766	13247.447266
815.092773	13413.770508
813.926758	13095.705078
812.759766	13227.705078
811.592773	13306.094727
810.424805	13018.248047
809.257813	13053.826172
808.089844	13029.452148
806.920898	13152.751953
805.752930	13130.503906
804.583984	13125.376953
803.415039	13092.450195
802.246094	12941.941406
801.076172	12930.444336
799.906250	12985.203125
798.736328	13176.681641
797.566406	12881.027344
796.395508	13168.544922
795.224609	13092.949219
794.053711	13181.758789
792.881836	13287.599609
791.710938	13303.775391
790.538086	13735.923828
789.366211	13707.200195
788.194336	13942.889648
787.021484	14206.182617
785.848633	14151.791992
784.674805	14206.096680
783.500977	13830.049805
782.327148	13745.960938
781.153320	13798.187500
779.979492	13609.828125
778.804688	13651.417969
777.629883	13399.338867
776.454102	13594.128906
775.279297	13450.648438
774.103516	13273.208984
772.927734	13401.986328
771.750977	13364.917969
770.575195	13506.363281
769.398438	13658.366211
768.220703	13667.989258
767.043945	13773.165039
765.866211	13772.140625
764.688477	13798.708008
763.510742	13992.905273
762.332031	14271.876953
761.153320	14440.421875
759.974609	14697.954102
758.794922	15173.741211
757.616211	15963.015625
756.436523	16277.236328
755.255859	17074.369141
754.076172	18606.146484
752.895508	19743.330078
751.714844	21773.455078
750.533203	23491.490234
749.352539	26103.910156
748.170898	28558.564453
746.988281	30440.966797
745.806641	31924.923828
744.624023	33516.027344
743.441406	34935.179688
742.258789	35950.035156
741.075195	37925.765625
739.891602	39784.410156
738.708008	41891.402344
737.523438	43566.699219
736.339844	44470.738281
735.155273	44785.550781
733.969727	44165.503906
732.785156	42959.304688
731.599609	39887.207031
730.414063	36824.949219
729.227539	32994.667969
728.041992	29541.281250
726.855469	26498.244141
725.667969	23604.062500
724.481445	21157.695313
723.293945	19478.888672
722.106445	17931.367188
720.918945	16940.177734
719.730469	16218.772461
718.541992	15682.820313
717.353516	15195.486328
716.164063	14693.656250
714.975586	14454.832031
713.786133	14121.539063
712.595703	14076.268555
711.406250	13772.624023
710.215820	13662.343750
709.025391	13682.300781
707.833984	13691.751953
706.642578	13545.882813
705.451172	13318.244141
704.259766	13543.848633
703.068359	13509.273438
701.875977	13720.049805
700.683594	13442.262695
699.490234	13948.483398
698.297852	14043.760742
697.104492	14604.077148
695.910156	14852.055664
694.716797	15353.293945
693.522461	15454.436523
692.328125	15658.089844
691.132813	15897.222656
689.938477	15960.508789
688.743164	15946.375000
687.547852	15781.686523
686.351563	15418.461914
685.155273	15354.294922
683.958984	15085.369141
682.762695	14716.285156
681.565430	14372.433594
680.368164	14068.416016
679.170898	13912.768555
677.973633	14191.342773
676.775391	14219.373047
675.577148	13980.342773
674.378906	13941.660156
673.179688	13761.191406
671.980469	13853.921875
670.781250	13965.368164
669.581055	13693.324219
668.381836	13552.659180
667.181641	13703.670898
665.980469	13737.994141
664.780273	13497.478516
663.579102	13361.148438
662.377930	13703.513672
661.175781	13758.606445
659.973633	13982.157227
658.771484	13775.130859
657.569336	13981.940430
656.367188	14018.206055
655.164063	14287.206055
653.960938	14724.371094
652.756836	14878.835938
651.552734	15128.757813
650.348633	15351.571289
649.144531	15476.721680
647.939453	15578.984375
646.735352	16073.333008
645.529297	16036.430664
644.324219	15991.249023
643.118164	16002.067383
641.912109	16201.509766
640.706055	16148.028320
639.499023	15841.797852
638.292969	15730.421875
637.084961	15391.291992
635.877930	15168.263672
634.669922	15226.857422
633.461914	14983.272461
632.253906	14700.488281
631.044922	14506.782227
629.836914	14522.040039
628.626953	14266.433594
627.417969	14333.416016
626.208008	14193.702148
624.998047	14113.970703
623.788086	14071.457031
622.577148	14099.179688
621.366211	13678.841797
620.155273	13506.408203
618.944336	13369.136719
617.732422	13384.613281
616.520508	13140.165039
615.308594	13031.944336
614.095703	12896.968750
612.882813	12644.554688
611.669922	12629.261719
610.457031	12640.761719
609.243164	12604.875000
608.029297	12585.480469
606.815430	12734.932617
605.600586	12532.306641
604.385742	12447.082031
603.170898	12333.090820
601.955078	12416.631836
600.740234	12243.056641
599.524414	12499.294922
598.307617	12309.333008
597.091797	12460.621094
595.875000	12712.518555
594.658203	12590.427734
593.440430	12566.972656
592.222656	12570.219727
591.004883	12840.331055
589.787109	12685.482422
588.568359	12645.609375
587.349609	12751.401367
586.130859	12664.358398
584.912109	12591.708984
583.692383	12732.287109
582.472656	12671.950195
581.251953	12630.081055
580.032227	12825.860352
578.811523	12880.232422
577.589844	13159.812500
576.369141	13175.184570
575.147461	13024.772461
573.925781	13322.537109
572.703125	13505.604492
571.481445	13635.411133
570.258789	13869.438477
569.035156	13972.523438
567.812500	14439.353516
566.588867	14448.263672
565.365234	14833.051758
564.140625	14713.196289
562.916992	14905.804688
561.692383	14857.435547
560.466797	15009.100586
559.242188	14811.773438
558.016602	14549.257813
556.791016	14439.827148
555.564453	14185.672852
554.337891	13843.977539
553.111328	13734.784180
551.884766	13362.785156
550.657227	13386.167969
549.429688	12906.476563
548.202148	12669.317383
546.974609	12806.842773
545.746094	12700.072266
544.517578	12591.315430
543.288086	12543.637695
542.058594	12693.264648
540.829102	12570.349609
539.599609	12482.049805
538.370117	12574.676758
537.139648	12427.488281
535.909180	12487.580078
534.677734	12541.549805
533.446289	12463.507813
532.214844	12690.013672
530.983398	12435.396484
529.750977	12268.149414
528.519531	12316.017578
527.286133	12193.495117
526.053711	12342.743164
524.820313	12412.858398
523.586914	12430.244141
522.353516	12356.437500
521.119141	12309.000000
519.884766	12071.199219
518.650391	12534.123047
517.415039	12209.329102
516.179688	12230.781250
514.944336	12114.625977
513.708984	12362.667969
