#Wave		#Intensity
1585.210938	4633.133301
1584.209961	4650.616699
1583.208984	4612.196289
1582.208008	4810.969238
1581.206055	4665.199219
1580.204102	4554.427246
1579.202148	4648.296387
1578.200195	4527.595215
1577.198242	4574.043945
1576.195313	4647.901855
1575.192383	4666.882813
1574.189453	4563.724609
1573.186523	4627.570313
1572.182617	4629.103516
1571.178711	4635.617188
1570.174805	4729.292969
1569.170898	4613.778320
1568.166992	4615.312012
1567.162109	4639.245117
1566.158203	4506.401855
1565.153320	4455.711914
1564.147461	4653.774414
1563.142578	4563.286133
1562.136719	4465.375488
1561.130859	4588.739746
1560.125000	4485.894043
1559.119141	4626.595703
1558.113281	4630.605957
1557.106445	4763.768066
1556.099609	4680.835938
1555.092773	4687.314453
1554.084961	4733.505371
1553.078125	4804.493652
1552.070313	4639.743164
1551.062500	4874.442383
1550.054688	4803.989746
1549.045898	4904.659180
1548.038086	4772.251953
1547.029297	4867.928223
1546.020508	4874.354492
1545.011719	4870.868164
1544.001953	4916.923340
1542.992188	4987.724609
1541.982422	4897.555176
1540.972656	4938.625000
1539.962891	4974.727051
1538.952148	4983.595215
1537.942383	5019.672852
1536.931641	4843.018555
1535.919922	4926.095703
1534.909180	4934.965332
1533.897461	4849.898438
1532.886719	4806.880859
1531.874023	4877.541504
1530.862305	4883.942383
1529.850586	4779.196777
1528.837891	4864.634766
1527.825195	4717.965820
1526.812500	4586.166992
1525.799805	4656.784180
1524.786133	4774.250977
1523.772461	4573.451660
1522.758789	4594.701172
1521.745117	4569.091797
1520.731445	4486.791992
1519.716797	4586.917969
1518.702148	4516.969238
1517.687500	4424.875488
1516.672852	4542.193848
1515.657227	4504.312500
1514.642578	4606.792480
1513.626953	4635.378906
1512.610352	4572.889160
1511.594727	4527.649902
1510.579102	4561.154297
1509.562500	4616.781738
1508.545898	4549.428711
1507.529297	4622.245605
1506.511719	4468.883789
1505.494141	4490.077148
1504.477539	4643.944824
1503.458984	4579.111328
1502.441406	4597.811523
1501.423828	4506.002441
1500.405273	4514.889160
1499.386719	4634.227539
1498.368164	4584.186035
1497.348633	4573.422363
1496.330078	4511.148438
1495.310547	4569.074707
1494.291016	4592.648438
1493.271484	4601.502441
1492.250977	4495.155762
1491.231445	4516.278809
1490.210938	4544.742676
1489.190430	4543.800781
1488.168945	4697.144531
1487.148438	4561.505371
1486.126953	4457.745117
1485.105469	4706.461914
1484.083984	4639.418457
1483.061523	4741.207520
1482.040039	4708.427246
1481.017578	4590.070801
1479.995117	4669.801270
1478.971680	4705.499512
1477.949219	4616.542969
1476.925781	4649.793457
1475.902344	4753.873535
1474.878906	4774.869629
1473.855469	4717.715820
1472.831055	4831.481934
1471.806641	4903.706055
1470.782227	4819.716797
1469.757813	4923.630859
1468.733398	4990.911133
1467.708008	5099.624023
1466.682617	5140.017578
1465.657227	5092.632324
1464.631836	5320.684570
1463.605469	5226.981445
1462.579102	5350.148926
1461.552734	5373.396484
1460.526367	5379.587402
1459.500000	5495.341309
1458.472656	5606.178223
1457.445313	5407.877441
1456.417969	5338.623047
1455.390625	5366.708008
1454.362305	5312.083984
1453.334961	5259.914063
1452.306641	5249.096680
1451.277344	5330.652832
1450.249023	5096.241211
1449.219727	5058.736816
1448.191406	5086.836914
1447.162109	4901.196289
1446.131836	4990.022949
1445.102539	4857.889160
1444.072266	4718.527832
1443.041992	4868.004395
1442.011719	4782.075195
1440.981445	4744.695801
1439.950195	4763.111816
1438.918945	4837.287598
1437.887695	4753.859375
1436.856445	4711.668457
1435.825195	4722.805176
1434.792969	4809.040039
1433.760742	4718.419434
1432.728516	4661.739746
1431.696289	4631.716309
1430.663086	4693.690918
1429.629883	4658.832520
1428.596680	4548.978516
1427.563477	4584.319824
1426.530273	4609.971191
1425.496094	4446.995605
1424.461914	4595.965332
1423.427734	4749.707031
1422.393555	4490.137207
1421.358398	4481.954102
1420.323242	4493.099609
1419.288086	4511.485840
1418.252930	4426.034180
1417.217773	4562.718750
1416.181641	4520.737305
1415.145508	4459.467773
1414.109375	4528.505371
1413.073242	4599.926270
1412.036133	4495.268555
1411.000000	4460.576660
1409.962891	4657.318359
1408.924805	4610.555664
1407.887695	4624.053223
1406.849609	4582.134766
1405.812500	4732.922363
1404.773438	4765.649902
1403.735352	4860.960938
1402.697266	4874.390625
1401.658203	5012.957520
1400.619141	4886.794922
1399.580078	4818.419434
1398.540039	4908.808594
1397.500977	4970.304688
1396.460938	4935.610840
1395.420898	4876.895020
1394.380859	4835.025391
1393.339844	4850.834961
1392.298828	4938.700195
1391.257813	4858.417480
1390.216797	4864.606934
1389.175781	4921.205566
1388.133789	4927.378906
1387.091797	4806.371094
1386.049805	4966.106445
1385.007813	4929.090820
1383.964844	4911.275391
1382.922852	4994.165039
1381.879883	4846.900391
1380.835938	4951.337402
1379.792969	5019.789551
1378.749023	5095.399414
1377.706055	5187.743164
1376.661133	5088.481445
1375.617188	5070.659668
1374.573242	5050.451172
1373.528320	5281.524414
1372.483398	5091.406250
1371.438477	5116.654785
1370.392578	5177.766113
1369.347656	4992.570313
1368.301758	5221.021973
1367.255859	5153.007813
1366.208984	5022.892578
1365.163086	5167.575684
1364.116211	4987.351074
1363.069336	5060.337891
1362.022461	5166.719727
1360.974609	5036.736328
1359.927734	5123.985352
1358.879883	5211.197754
1357.832031	5095.598633
1356.783203	5087.376465
1355.735352	5019.542969
1354.686523	5190.145508
1353.637695	5053.194336
1352.588867	5183.205078
1351.539063	5208.327637
1350.490234	5304.901855
1349.440430	5284.737305
1348.390625	5343.156738
1347.339844	5470.588379
1346.290039	5388.518555
1345.239258	5618.208984
1344.188477	5617.030762
1343.137695	5687.210449
1342.085938	5659.858887
1341.034180	5851.256348
1339.982422	5811.995605
1338.930664	5839.294922
1337.878906	5975.883301
1336.826172	5919.990234
1335.773438	5990.000488
1334.720703	5995.867188
1333.667969	5897.270020
1332.614258	5803.460938
1331.561523	5833.092773
1330.507813	5585.116211
1329.453125	5636.129395
1328.399414	5746.411133
1327.344727	5678.812500
1326.290039	5521.158691
1325.235352	5576.880859
1324.180664	5533.055664
1323.125000	5380.269043
1322.070313	5379.137695
1321.014648	5496.412598
1319.958008	5431.330566
1318.902344	5259.755371
1317.845703	5194.749512
1316.789063	5368.750488
1315.732422	5332.136230
1314.675781	5231.678223
1313.618164	5119.439453
1312.560547	5132.546387
1311.502930	5008.556641
1310.445313	5054.764648
1309.386719	4959.194336
1308.329102	4908.544434
1307.270508	4836.661133
1306.210938	4809.669434
1305.152344	4827.541016
1304.092773	4630.630859
1303.033203	4693.365234
1301.973633	4626.319336
1300.914063	4589.964355
1299.853516	4772.933594
1298.792969	4668.189453
1297.732422	4756.777344
1296.671875	4772.270508
1295.611328	4677.016602
1294.549805	4720.787598
1293.488281	4576.125000
1292.426758	4589.287109
1291.364258	4677.777832
1290.302734	4657.960449
1289.240234	4640.504395
1288.177734	4670.109375
1287.114258	4615.022461
1286.051758	4609.344238
1284.988281	4707.121094
1283.924805	4553.330078
1282.861328	4761.536621
1281.796875	4809.874512
1280.732422	4642.062500
1279.667969	4739.727539
1278.603516	4858.484863
1277.539063	4704.854492
1276.473633	4807.137695
1275.408203	4975.085938
1274.342773	4793.372559
1273.277344	4804.086914
1272.210938	4929.713379
1271.145508	4830.190430
1270.079102	4941.691895
1269.011719	4774.238281
1267.945313	4834.151855
1266.877930	4748.788574
1265.810547	4771.205078
1264.743164	4814.687988
1263.674805	4680.214355
1262.607422	4613.680664
1261.539063	4556.535645
1260.470703	4539.191406
1259.401367	4449.335449
1258.333008	4434.358887
1257.263672	4496.552734
1256.194336	4423.126465
1255.125000	4345.056641
1254.054688	4428.260254
1252.985352	4385.266602
1251.915039	4522.148926
1250.843750	4395.081055
1249.773438	4370.799805
1248.702148	4316.181641
1247.630859	4312.930664
1246.559570	4407.681641
1245.488281	4285.437012
1244.416016	4347.499512
1243.343750	4195.004883
1242.271484	4378.290527
1241.199219	4225.853516
1240.125977	4201.651367
1239.053711	4310.261719
1237.980469	4171.911621
1236.906250	4308.427734
1235.833008	4256.286621
1234.758789	4253.052734
1233.684570	4280.076172
1232.610352	4362.933105
1231.536133	4250.336914
1230.460938	4316.882813
1229.385742	4202.018066
1228.310547	4275.520508
1227.235352	4316.448730
1226.159180	4299.261719
1225.083008	4168.232910
1224.006836	4218.449219
1222.930664	4340.638672
1221.853516	4265.411133
1220.777344	4157.714844
1219.700195	4314.652344
1218.622070	4271.963867
1217.544922	4264.092285
1216.466797	4309.571289
1215.388672	4334.160156
1214.310547	4275.272949
1213.232422	4278.996094
1212.153320	4247.954590
1211.074219	4402.285645
1209.995117	4297.103027
1208.916016	4347.136719
1207.835938	4355.469727
1206.755859	4294.348633
1205.675781	4369.809570
1204.595703	4283.256348
1203.514648	4247.637207
1202.434570	4392.449707
1201.353516	4289.758301
1200.271484	4429.875000
1199.190430	4181.591309
1198.108398	4289.315918
1197.026367	4293.019043
1195.944336	4107.294434
1194.862305	4203.416992
1193.779297	4149.407715
1192.696289	4130.050293
1191.613281	4115.316895
1190.530273	4137.510742
1189.446289	4141.238281
1188.362305	4041.166504
1187.278320	4150.993164
1186.194336	4136.269043
1185.109375	3994.769775
1184.024414	3996.217529
1182.939453	4078.308838
1181.854492	4024.449951
1180.768555	4030.495605
1179.683594	4112.525391
1178.597656	4010.347900
1177.510742	4067.028076
1176.424805	4004.023193
1175.337891	3973.254395
1174.250977	4055.207031
1173.164063	3999.143066
1172.077148	3989.086914
1170.989258	3983.631836
1169.901367	3989.669922
1168.813477	4000.300537
1167.724609	3960.387451
1166.636719	4033.030518
1165.547852	3896.685547
1164.458984	3941.761475
1163.369141	4039.608154
1162.280273	4054.801758
1161.190430	4115.873047
1160.100586	3970.480469
1159.010742	4036.129639
1157.919922	4026.089111
1156.829102	4066.482422
1155.738281	3941.850342
1154.647461	4087.642578
1153.555664	4061.562744
1152.464844	4088.170410
1151.373047	4073.550049
1150.280273	4063.514160
1149.188477	4092.392090
1148.095703	4107.527344
1147.002930	4127.230957
1145.910156	4069.156982
1144.817383	4141.457031
1143.723633	3964.514648
1142.629883	4052.806396
1141.536133	4093.067383
1140.441406	4060.195068
1139.347656	3919.971436
1138.252930	4015.046631
1137.158203	3982.211426
1136.062500	4122.889160
1134.967773	4032.984619
1133.872070	4018.420898
1132.776367	4006.144531
1131.679688	4094.233398
1130.583984	3983.887207
1129.487305	4119.820313
1128.390625	3941.133057
1127.292969	4026.879150
1126.196289	4064.740723
1125.098633	3970.464355
1124.000977	3867.118652
1122.903320	4009.729492
1121.804688	3940.566406
1120.706055	3939.712158
1119.607422	3900.175049
1118.508789	3853.829590
1117.409180	3987.188965
1116.310547	3952.213867
1115.210938	4046.843750
1114.110352	3993.686279
1113.010742	3963.276855
1111.910156	3928.335938
1110.809570	4043.331299
1109.708984	3908.461914
1108.607422	3875.825439
1107.506836	3879.523438
1106.405273	3910.454346
1105.303711	3877.837646
1104.201172	3976.812256
1103.098633	3957.802979
1101.996094	3943.336914
1100.893555	3985.554199
1099.791016	3980.154053
1098.687500	4011.013672
1097.583984	3901.391357
1096.480469	3916.397949
1095.376953	3908.751709
1094.272461	3835.448242
1093.167969	3807.449463
1092.063477	3879.041016
1090.958008	3912.135742
1089.853516	3933.905029
1088.748047	3982.804688
1087.642578	4054.294434
1086.536133	3969.765137
1085.430664	3921.435547
1084.324219	3861.828125
1083.217773	3973.946289
1082.110352	3968.561768
1081.003906	3969.954102
1079.896484	3998.438232
1078.789063	4103.655762
1077.680664	4017.003418
1076.573242	4029.663818
1075.464844	4031.039307
1074.356445	3937.693115
1073.247070	3889.482422
1072.138672	3972.041016
1071.029297	3921.589355
1069.919922	3907.212402
1068.809570	3935.644531
1067.700195	3932.531494
1066.589844	3981.211426
1065.479492	3867.774414
1064.368164	3979.469482
1063.257813	3904.337402
1062.146484	3892.233643
1061.035156	3864.389404
1059.922852	3924.262451
1058.811523	3858.200195
1057.699219	3771.935791
1056.586914	3822.799316
1055.473633	3835.443115
1054.361328	3816.631104
1053.248047	3878.679932
1052.134766	3857.620850
1051.021484	3827.590820
1049.907227	3916.528564
1048.792969	3772.057373
1047.678711	3726.360840
1046.564453	3851.148438
1045.449219	3776.302002
1044.333984	3880.845459
1043.218750	3781.368408
1042.103516	3903.791992
1040.987305	3784.188477
1039.871094	3776.637207
1038.754883	3780.286377
1037.638672	3779.455566
1036.521484	3733.854248
1035.404297	3815.840332
1034.287109	3819.476318
1033.169922	3814.162354
1032.051758	3804.376953
1030.933594	3859.441406
1029.815430	3887.654541
1028.697266	3889.033936
1027.578125	3932.869629
1026.458984	3806.894287
1025.339844	3868.596924
1024.220703	3901.241455
1023.100586	3929.406006
1021.980469	3899.522461
1020.860352	3874.114990
1019.740234	3855.412109
1018.619141	3899.175049
1017.498047	3871.553223
1016.376953	3841.713867
1015.255859	3769.532715
1014.133789	3918.022949
1013.011719	3763.413086
1011.889648	3851.690430
1010.767578	3712.753418
1009.644531	3752.014404
1008.521484	3911.473877
1007.398438	3792.646240
1006.274414	3831.862793
1005.151367	3766.498291
1004.027344	3810.151123
1002.902344	3811.532715
1001.778320	3723.982422
1000.653320	3807.624756
999.528320	3791.226563
998.403320	3785.944336
997.278320	3691.812012
996.152344	3782.048584
995.026367	3870.024414
993.900391	3795.913330
992.773438	3881.627197
991.646484	3783.138184
990.519531	3879.908203
989.392578	3843.562744
988.265625	3864.885010
987.137695	3915.016846
986.009766	3794.463867
984.881836	3875.611084
983.752930	3861.459229
982.624023	3902.686523
981.495117	3793.313965
980.366211	3836.751221
979.236328	3771.709961
978.106445	3788.576660
976.976563	3690.387207
975.846680	3831.134277
974.715820	3803.745850
973.585938	3838.276855
972.454102	3768.898926
971.323242	3856.461914
970.191406	3740.710205
969.060547	3742.087891
967.927734	3723.587646
966.795898	3627.813965
965.663086	3717.517090
964.530273	3782.902100
963.397461	3755.581787
962.264648	3767.982666
961.130859	3850.956543
959.997070	3742.049805
958.863281	4010.178711
957.729492	3744.791992
956.594727	3821.084961
955.459961	3747.530518
954.325195	3823.788330
953.189453	3706.222412
952.053711	3780.252930
950.917969	3649.541260
949.782227	3734.554443
948.646484	3746.922852
947.509766	3693.294434
946.373047	3776.040771
945.235352	3766.403564
944.098633	3765.563232
942.960938	3769.118408
941.823242	3671.598389
940.685547	3785.010010
939.546875	3823.697754
938.408203	3796.494629
937.269531	3712.225830
936.129883	3796.993408
934.991211	3772.007813
933.851563	3819.428711
932.711914	3937.014648
931.571289	3887.892090
930.431641	3878.253662
929.291016	3846.700439
928.149414	3804.204102
927.008789	3893.178955
925.867188	3765.265625
924.725586	3880.487305
923.583984	3772.338135
922.441406	3789.005127
921.299805	3753.142090
920.157227	3747.925781
919.013672	3749.273682
917.871094	3735.312256
916.727539	3703.864746
915.583984	3630.897705
914.439453	3654.124268
913.295898	3721.040039
912.151367	3702.729736
911.006836	3666.955322
909.861328	3646.481201
908.716797	3599.819580
907.571289	3625.202393
906.424805	3613.478760
905.279297	3658.480469
904.132813	3662.021484
902.986328	3698.269287
901.839844	3614.595215
900.692383	3631.220215
899.545898	3676.166016
898.398438	3603.445557
897.250000	3609.170410
896.102539	3660.622803
894.954102	3746.886230
893.805664	3674.213867
892.656250	3638.568848
891.507813	3724.778320
890.358398	3636.932617
889.208984	3710.054443
888.058594	3702.697021
886.908203	3634.478271
885.758789	3701.030762
884.607422	3617.633057
883.457031	3640.713379
882.305664	3553.022705
881.154297	3576.106689
880.002930	3614.375488
878.850586	3552.792480
877.698242	3599.728027
876.545898	3624.948730
875.393555	3582.923584
874.240234	3612.472900
873.086914	3561.797607
871.933594	3547.989990
870.780273	3605.695801
869.625977	3630.879150
868.471680	3463.284912
867.317383	3683.376221
866.162109	3565.638672
865.007813	3592.971436
863.852539	3572.684814
862.696289	3591.349365
861.541016	3532.137939
860.384766	3507.552734
859.228516	3558.648193
858.072266	3585.943848
856.915039	3503.014648
855.757813	3528.149414
854.600586	3533.832031
853.442383	3507.118408
852.285156	3532.234131
851.126953	3600.509766
849.968750	3604.011475
848.809570	3560.044189
847.650391	3500.996582
846.491211	3532.553711
845.332031	3602.906738
844.171875	3505.086914
843.012695	3603.430664
841.851563	3652.172363
840.691406	3498.397949
839.530273	3542.833252
838.369141	3608.780029
837.208008	3498.173584
836.046875	3525.359863
834.884766	3550.381836
833.722656	3616.266113
832.560547	3568.129395
831.397461	3595.273926
830.234375	3583.709473
829.071289	3462.535400
827.908203	3562.744629
826.744141	3579.122803
825.580078	3528.910156
824.416016	3586.087891
823.251953	3572.392822
822.086914	3620.948486
820.921875	3487.080811
819.756836	3439.089844
818.590820	3419.004639
817.425781	3473.983154
816.259766	3522.504639
815.092773	3581.721191
813.926758	3520.904053
812.759766	3468.684082
811.592773	3375.789551
810.424805	3407.144775
809.257813	3524.126221
808.089844	3478.373535
806.920898	3441.201416
805.752930	3485.349609
804.583984	3488.834717
803.415039	3539.366943
802.246094	3438.070557
801.076172	3556.994629
799.906250	3357.431641
798.736328	3527.598633
797.566406	3441.349121
796.395508	3491.821533
795.224609	3503.837158
794.053711	3400.573486
792.881836	3623.890869
791.710938	3514.245117
790.538086	3489.978516
789.366211	3576.625977
788.194336	3605.662354
787.021484	3474.801514
785.848633	3557.129639
784.674805	3549.926025
783.500977	3602.374268
782.327148	3486.541504
781.153320	3413.347900
779.979492	3484.950439
778.804688	3588.445801
777.629883	3436.546143
776.454102	3478.309814
775.279297	3492.404297
774.103516	3470.342285
772.927734	3580.099121
771.750977	3551.650391
770.575195	3512.589600
769.398438	3539.405518
768.220703	3481.248535
767.043945	3525.046875
765.866211	3543.348633
764.688477	3483.107178
763.510742	3548.094971
762.332031	3526.067871
761.153320	3578.289063
759.974609	3518.093506
758.794922	3761.103271
757.616211	3794.157227
756.436523	3873.816895
755.255859	3930.134766
754.076172	4041.499268
752.895508	4193.048828
751.714844	4333.942383
750.533203	4487.471680
749.352539	4609.186523
748.170898	5014.357422
746.988281	5049.168945
745.806641	5160.096191
744.624023	5139.885742
743.441406	5174.643066
742.258789	5289.690918
741.075195	5542.021484
739.891602	5490.054688
738.708008	5816.138672
737.523438	6108.290527
736.339844	6111.111816
735.155273	6109.710449
733.969727	6023.911133
732.785156	5822.130371
731.599609	5641.531250
730.414063	5286.009277
729.227539	5084.534668
728.041992	4794.636230
726.855469	4479.585449
725.667969	4217.343262
724.481445	3946.796875
723.293945	3851.138916
722.106445	3690.266113
720.918945	3634.698242
719.730469	3718.029541
718.541992	3557.297119
717.353516	3640.607178
716.164063	3458.938721
714.975586	3466.552979
713.786133	3411.111328
712.595703	3506.985107
711.406250	3501.977539
710.215820	3492.771484
709.025391	3313.485352
707.833984	3407.193115
706.642578	3297.270264
705.451172	3279.725098
704.259766	3308.341064
703.068359	3441.812988
701.875977	3453.602783
700.683594	3448.615479
699.490234	3439.438232
698.297852	3423.978516
697.104492	3490.229980
695.910156	3449.631348
694.716797	3587.041992
693.522461	3529.690918
692.328125	3608.414307
691.132813	3521.788330
689.938477	3583.739990
688.743164	3543.174072
687.547852	3485.897949
686.351563	3564.539307
685.155273	3507.283936
683.958984	3450.054688
682.762695	3511.935547
681.565430	3479.795654
680.368164	3410.082275
679.170898	3432.261475
677.973633	3454.430420
676.775391	3320.079590
675.577148	3442.406494
674.378906	3399.896240
673.179688	3367.832275
671.980469	3383.734375
670.781250	3466.329346
669.581055	3413.432373
668.381836	3348.059082
667.181641	3324.374268
665.980469	3340.267090
664.780273	3356.152344
663.579102	3307.503418
662.377930	3406.629150
661.175781	3378.795898
659.973633	3413.376953
658.771484	3458.339844
657.569336	3497.044434
656.367188	3533.652344
655.164063	3455.945313
653.960938	3488.389893
652.756836	3437.731934
651.552734	3488.855469
650.348633	3504.659424
649.144531	3534.986084
647.939453	3642.083008
646.735352	3595.596436
645.529297	3615.508789
644.324219	3647.854736
643.118164	3615.911621
641.912109	3619.221680
640.706055	3620.457764
639.499023	3528.457031
638.292969	3585.641357
637.084961	3620.018555
635.877930	3443.191895
634.669922	3562.455322
633.461914	3458.156006
632.253906	3471.839600
631.044922	3454.488281
629.836914	3480.574219
628.626953	3440.484863
627.417969	3396.279541
626.208008	3391.360840
624.998047	3357.517578
623.788086	3189.420166
622.577148	3343.572998
621.366211	3390.288086
620.155273	3298.676514
618.944336	3345.379883
617.732422	3311.593018
616.520508	3277.821289
615.308594	3371.930420
614.095703	3340.221924
612.882813	3228.133789
611.669922	3334.553955
610.457031	3245.183105
609.243164	3287.690918
608.029297	3291.048584
606.815430	3286.168457
605.600586	3351.280273
604.385742	3233.195557
603.170898	3300.346436
601.955078	3207.012695
600.740234	3253.572266
599.524414	3234.313232
598.307617	3369.238037
597.091797	3146.496826
595.875000	3164.260254
594.658203	3169.689941
593.440430	3298.342529
592.222656	3182.594238
591.004883	3344.028564
589.787109	3179.066895
588.568359	3209.107910
587.349609	3239.135010
586.130859	3250.689697
584.912109	3262.238770
583.692383	3224.583252
582.472656	3244.330566
581.251953	3178.010254
580.032227	3199.807373
578.811523	3287.132080
577.589844	3274.084229
576.369141	3365.445068
575.147461	3391.270752
573.925781	3239.068604
572.703125	3303.779541
571.481445	3258.018555
570.258789	3418.797119
569.035156	3415.959961
567.812500	3447.868164
566.588867	3404.158936
565.365234	3429.926270
564.140625	3445.469482
562.916992	3346.659424
561.692383	3449.995361
560.466797	3406.335205
559.242188	3387.180664
558.016602	3343.554932
556.791016	3371.332520
555.564453	3266.558594
554.337891	3296.379395
553.111328	3328.224121
551.884766	3274.473389
550.657227	3237.044678
549.429688	3207.779785
548.202148	3231.469971
546.974609	3118.754395
545.746094	3295.098877
544.517578	3223.116211
543.288086	3185.750244
542.058594	3221.620117
540.829102	3245.272949
539.599609	3244.519775
538.370117	3160.436768
537.139648	3202.374268
535.909180	3173.190186
534.677734	3186.670654
533.446289	3240.755615
532.214844	3205.492188
530.983398	3263.606445
529.750977	3195.887451
528.519531	3191.088135
527.286133	3281.615967
526.053711	3213.939209
524.820313	3243.601807
523.586914	3319.866455
522.353516	3274.516846
521.119141	3447.978760
519.884766	3313.503662
518.650391	3304.634766
517.415039	3125.717773
516.179688	3191.782715
514.944336	3174.853516
513.708984	3236.830078
