#Wave		#Intensity
1585.210938	12448.266602
1584.209961	12233.469727
1583.208984	12463.167969
1582.208008	12420.639648
1581.206055	12295.757813
1580.204102	12220.838867
1579.202148	12363.020508
1578.200195	12228.249023
1577.198242	12322.982422
1576.195313	12440.119141
1575.192383	12310.399414
1574.189453	12479.830078
1573.186523	12447.341797
1572.182617	12397.426758
1571.178711	12232.948242
1570.174805	12183.096680
1569.170898	12307.558594
1568.166992	12242.775391
1567.162109	12232.773438
1566.158203	12115.775391
1565.153320	12018.728516
1564.147461	12135.630859
1563.142578	12080.895508
1562.136719	12185.303711
1561.130859	12138.037109
1560.125000	12354.226563
1559.119141	12341.729492
1558.113281	12674.544922
1557.106445	12535.316406
1556.099609	12637.014648
1555.092773	12810.668945
1554.084961	12850.213867
1553.078125	13051.048828
1552.070313	13055.791016
1551.062500	13177.119141
1550.054688	12871.816406
1549.045898	12886.508789
1548.038086	12864.007813
1547.029297	12819.208008
1546.020508	12610.875000
1545.011719	12519.072266
1544.001953	12655.194336
1542.992188	12528.748047
1541.982422	12375.117188
1540.972656	12169.563477
1539.962891	11946.770508
1538.952148	12129.882813
1537.942383	12023.464844
1536.931641	11825.572266
1535.919922	11751.409180
1534.909180	11645.133789
1533.897461	11773.734375
1532.886719	11796.010742
1531.874023	11758.976563
1530.862305	11670.078125
1529.850586	11801.035156
1528.837891	11867.733398
1527.825195	11929.465820
1526.812500	11727.060547
1525.799805	11709.826172
1524.786133	11855.440430
1523.772461	11749.379883
1522.758789	11746.946289
1521.745117	11865.337891
1520.731445	11845.624023
1519.716797	11806.199219
1518.702148	11791.433594
1517.687500	12027.973633
1516.672852	12000.850586
1515.657227	11963.887695
1514.642578	11939.250000
1513.626953	12030.322266
1512.610352	12222.264648
1511.594727	12094.238281
1510.579102	12040.070313
1509.562500	11912.133789
1508.545898	11865.401367
1507.529297	11971.124023
1506.511719	11668.752930
1505.494141	11985.826172
1504.477539	11897.344727
1503.458984	11907.163086
1502.441406	11990.660156
1501.423828	12002.909180
1500.405273	12020.063477
1499.386719	12002.845703
1498.368164	12042.078125
1497.348633	11838.391602
1496.330078	12147.475586
1495.310547	11990.449219
1494.291016	12066.428711
1493.271484	12164.441406
1492.250977	12085.939453
1491.231445	12007.468750
1490.210938	12264.679688
1489.190430	12262.137695
1488.168945	12115.106445
1487.148438	12017.105469
1486.126953	12249.619141
1485.105469	12362.110352
1484.083984	12134.428711
1483.061523	12330.075195
1482.040039	12325.073242
1481.017578	12342.081055
1479.995117	12667.141602
1478.971680	12686.515625
1477.949219	12625.231445
1476.925781	12720.349609
1475.902344	12991.315430
1474.878906	13047.239258
1473.855469	13403.490234
1472.831055	13410.475586
1471.806641	13441.866211
1470.782227	13622.105469
1469.757813	13929.141602
1468.733398	14153.112305
1467.708008	14476.980469
1466.682617	14834.851563
1465.657227	15199.886719
1464.631836	15472.150391
1463.605469	15963.615234
1462.579102	16457.310547
1461.552734	16836.318359
1460.526367	17300.402344
1459.500000	17562.205078
1458.472656	17731.394531
1457.445313	17365.080078
1456.417969	17281.175781
1455.390625	17452.748047
1454.362305	16952.941406
1453.334961	16392.546875
1452.306641	15973.397461
1451.277344	15875.281250
1450.249023	15359.201172
1449.219727	15040.144531
1448.191406	14745.511719
1447.162109	14533.577148
1446.131836	14217.316406
1445.102539	14262.916992
1444.072266	14143.447266
1443.041992	13808.047852
1442.011719	13950.751953
1440.981445	13702.856445
1439.950195	13760.639648
1438.918945	13549.254883
1437.887695	13495.530273
1436.856445	13102.510742
1435.825195	13073.131836
1434.792969	13133.404297
1433.760742	12755.234375
1432.728516	12837.341797
1431.696289	12817.724609
1430.663086	12437.433594
1429.629883	12507.452148
1428.596680	12311.277344
1427.563477	12463.543945
1426.530273	12308.575195
1425.496094	12235.887695
1424.461914	12184.989258
1423.427734	12134.111328
1422.393555	12450.583984
1421.358398	12160.471680
1420.323242	12029.912109
1419.288086	11983.935547
1418.252930	12061.124023
1417.217773	12109.310547
1416.181641	12200.921875
1415.145508	12191.141602
1414.109375	12347.836914
1413.073242	12424.866211
1412.036133	12472.922852
1411.000000	12513.725586
1409.962891	12503.886719
1408.924805	12923.052734
1407.887695	13072.166992
1406.849609	13394.673828
1405.812500	13924.185547
1404.773438	14239.154297
1403.735352	14558.806641
1402.697266	14892.767578
1401.658203	15255.466797
1400.619141	15343.718750
1399.580078	15388.631836
1398.540039	15642.769531
1397.500977	15605.842773
1396.460938	15508.829102
1395.420898	15443.100586
1394.380859	15425.460938
1393.339844	15218.022461
1392.298828	15313.333984
1391.257813	15053.168945
1390.216797	14965.989258
1389.175781	14621.982422
1388.133789	14854.139648
1387.091797	15074.200195
1386.049805	15474.100586
1385.007813	15857.041992
1383.964844	16304.570313
1382.922852	16799.863281
1381.879883	17448.361328
1380.835938	17957.585938
1379.792969	18500.140625
1378.749023	18992.162109
1377.706055	19335.480469
1376.661133	19537.375000
1375.617188	19887.615234
1374.573242	19593.835938
1373.528320	19850.585938
1372.483398	19631.103516
1371.438477	19316.029297
1370.392578	19111.099609
1369.347656	18614.541016
1368.301758	18275.966797
1367.255859	17920.802734
1366.208984	17233.634766
1365.163086	17050.849609
1364.116211	16720.046875
1363.069336	16439.531250
1362.022461	16390.726563
1360.974609	16298.974609
1359.927734	16173.846680
1358.879883	16046.384766
1357.832031	16071.652344
1356.783203	16230.472656
1355.735352	16174.613281
1354.686523	16538.373047
1353.637695	16918.666016
1352.588867	17317.863281
1351.539063	17824.107422
1350.490234	18442.095703
1349.440430	18724.021484
1348.390625	19336.798828
1347.339844	20061.205078
1346.290039	20725.804688
1345.239258	21237.830078
1344.188477	22001.822266
1343.137695	22392.054688
1342.085938	23134.078125
1341.034180	23704.603516
1339.982422	23975.373047
1338.930664	24265.039063
1337.878906	24393.009766
1336.826172	24471.035156
1335.773438	24850.666016
1334.720703	24600.865234
1333.667969	24379.656250
1332.614258	23994.759766
1331.561523	24110.750000
1330.507813	23764.029297
1329.453125	23206.335938
1328.399414	22489.978516
1327.344727	22169.894531
1326.290039	21288.109375
1325.235352	20947.078125
1324.180664	20509.035156
1323.125000	20064.066406
1322.070313	19545.857422
1321.014648	19061.019531
1319.958008	18858.128906
1318.902344	18394.941406
1317.845703	17886.978516
1316.789063	17369.765625
1315.732422	17271.484375
1314.675781	16910.714844
1313.618164	16727.443359
1312.560547	16721.556641
1311.502930	16339.853516
1310.445313	16093.009766
1309.386719	16113.247070
1308.329102	15616.164063
1307.270508	15565.641602
1306.210938	15283.746094
1305.152344	15077.508789
1304.092773	14531.495117
1303.033203	14401.009766
1301.973633	14584.348633
1300.914063	13996.324219
1299.853516	14049.968750
1298.792969	13905.545898
1297.732422	13666.895508
1296.671875	13701.718750
1295.611328	13515.045898
1294.549805	13387.342773
1293.488281	13443.397461
1292.426758	13235.702148
1291.364258	13091.656250
1290.302734	13119.490234
1289.240234	12973.174805
1288.177734	12963.376953
1287.114258	12927.708008
1286.051758	12990.824219
1284.988281	13119.748047
1283.924805	13236.861328
1282.861328	13196.459961
1281.796875	13492.084961
1280.732422	13611.392578
1279.667969	14043.028320
1278.603516	14065.888672
1277.539063	14220.211914
1276.473633	14456.622070
1275.408203	15000.353516
1274.342773	15055.834961
1273.277344	15123.021484
1272.210938	15157.344727
1271.145508	15116.619141
1270.079102	15167.336914
1269.011719	14948.499023
1267.945313	14795.364258
1266.877930	14579.038086
1265.810547	14280.823242
1264.743164	14043.620117
1263.674805	13689.452148
1262.607422	13197.327148
1261.539063	13220.272461
1260.470703	13114.518555
1259.401367	12926.933594
1258.333008	12786.203125
1257.263672	12343.889648
1256.194336	12385.689453
1255.125000	12343.327148
1254.054688	12223.867188
1252.985352	11968.950195
1251.915039	12143.931641
1250.843750	12003.569336
1249.773438	12054.721680
1248.702148	12094.178711
1247.630859	11841.889648
1246.559570	12014.374023
1245.488281	11925.505859
1244.416016	11985.944336
1243.343750	11654.605469
1242.271484	11817.654297
1241.199219	11861.758789
1240.125977	11842.923828
1239.053711	11875.352539
1237.980469	12101.105469
1236.906250	11874.958008
1235.833008	12165.807617
1234.758789	12063.119141
1233.684570	12125.718750
1232.610352	12220.866211
1231.536133	12334.583984
1230.460938	12318.001953
1229.385742	12250.266602
1228.310547	12498.748047
1227.235352	12210.180664
1226.159180	12432.999023
1225.083008	12146.890625
1224.006836	12139.655273
1222.930664	12176.548828
1221.853516	12085.717773
1220.777344	12059.925781
1219.700195	12029.501953
1218.622070	12263.622070
1217.544922	12073.087891
1216.466797	12026.441406
1215.388672	12035.468750
1214.310547	12016.669922
1213.232422	12076.689453
1212.153320	12199.254883
1211.074219	12110.919922
1209.995117	12177.827148
1208.916016	12230.809570
1207.835938	12339.339844
1206.755859	12172.336914
1205.675781	12273.887695
1204.595703	12266.634766
1203.514648	12342.671875
1202.434570	12275.266602
1201.353516	12270.328125
1200.271484	12219.149414
1199.190430	12359.850586
1198.108398	11992.058594
1197.026367	12049.565430
1195.944336	12042.365234
1194.862305	11855.021484
1193.779297	11739.336914
1192.696289	11725.279297
1191.613281	11653.524414
1190.530273	11507.956055
1189.446289	11420.126953
1188.362305	11311.575195
1187.278320	11286.088867
1186.194336	11161.471680
1185.109375	11131.416016
1184.024414	11002.273438
1182.939453	10910.051758
1181.854492	10859.333984
1180.768555	10746.453125
1179.683594	11013.555664
1178.597656	10778.673828
1177.510742	10810.883789
1176.424805	10576.143555
1175.337891	10755.625000
1174.250977	10744.113281
1173.164063	10548.630859
1172.077148	10762.487305
1170.989258	10587.771484
1169.901367	10564.811523
1168.813477	10748.653320
1167.724609	10723.369141
1166.636719	10567.182617
1165.547852	10525.873047
1164.458984	10406.526367
1163.369141	10519.047852
1162.280273	10441.056641
1161.190430	10413.572266
1160.100586	10466.379883
1159.010742	10507.697266
1157.919922	10585.679688
1156.829102	10434.401367
1155.738281	10450.487305
1154.647461	10507.807617
1153.555664	10610.918945
1152.464844	10606.339844
1151.373047	10544.518555
1150.280273	10581.162109
1149.188477	10677.297852
1148.095703	10805.427734
1147.002930	10821.398438
1145.910156	10832.786133
1144.817383	10729.827148
1143.723633	10898.985352
1142.629883	10967.493164
1141.536133	10796.007813
1140.441406	10834.802734
1139.347656	10592.603516
1138.252930	10836.971680
1137.158203	10606.291992
1136.062500	10626.827148
1134.967773	10889.286133
1133.872070	10711.225586
1132.776367	10943.892578
1131.679688	10615.354492
1130.583984	10774.966797
1129.487305	10633.559570
1128.390625	10797.656250
1127.292969	10672.255859
1126.196289	10893.231445
1125.098633	10631.186523
1124.000977	10719.981445
1122.903320	10694.888672
1121.804688	10767.694336
1120.706055	10817.708008
1119.607422	10844.944336
1118.508789	10528.643555
1117.409180	10578.673828
1116.310547	10637.777344
1115.210938	10617.281250
1114.110352	10674.076172
1113.010742	10503.592773
1111.910156	10317.278320
1110.809570	10555.821289
1109.708984	10682.977539
1108.607422	10535.342773
1107.506836	10374.150391
1106.405273	10523.957031
1105.303711	10129.121094
1104.201172	10446.788086
1103.098633	10498.951172
1101.996094	10238.163086
1100.893555	10458.112305
1099.791016	10043.315430
1098.687500	9995.808594
1097.583984	10084.257813
1096.480469	10231.561523
1095.376953	10061.751953
1094.272461	10215.787109
1093.167969	10109.434570
1092.063477	9876.391602
1090.958008	9921.755859
1089.853516	10148.072266
1088.748047	10039.562500
1087.642578	10059.986328
1086.536133	10039.708008
1085.430664	9863.484375
1084.324219	10035.330078
1083.217773	10044.437500
1082.110352	9881.876953
1081.003906	9956.500000
1079.896484	9952.069336
1078.789063	10148.534180
1077.680664	9848.428711
1076.573242	10033.546875
1075.464844	10085.494141
1074.356445	10114.864258
1073.247070	10094.616211
1072.138672	10187.089844
1071.029297	10209.655273
1069.919922	9955.054688
1068.809570	9995.680664
1067.700195	10027.280273
1066.589844	10049.856445
1065.479492	9975.616211
1064.368164	10173.756836
1063.257813	10063.514648
1062.146484	10198.551758
1061.035156	10187.322266
1059.922852	9919.725586
1058.811523	10290.782227
1057.699219	10227.835938
1056.586914	10151.431641
1055.473633	10207.625977
1054.361328	9933.574219
1053.248047	10057.167969
1052.134766	10176.214844
1051.021484	10165.003906
1049.907227	10048.308594
1048.792969	10001.225586
1047.678711	10046.143555
1046.564453	10126.927734
1045.449219	10250.283203
1044.333984	10041.771484
1043.218750	10227.850586
1042.103516	10346.617188
1040.987305	10122.536133
1039.871094	10261.432617
1038.754883	10382.350586
1037.638672	10429.327148
1036.521484	10303.916016
1035.404297	10301.650391
1034.287109	10433.636719
1033.169922	10455.950195
1032.051758	10628.100586
1030.933594	10603.402344
1029.815430	10493.760742
1028.697266	10701.548828
1027.578125	10665.673828
1026.458984	10788.434570
1025.339844	10712.350586
1024.220703	10875.240234
1023.100586	10857.216797
1021.980469	10783.396484
1020.860352	11026.499023
1019.740234	11095.464844
1018.619141	10912.336914
1017.498047	11045.969727
1016.376953	10976.643555
1015.255859	11021.035156
1014.133789	10927.227539
1013.011719	11080.789063
1011.889648	10929.087891
1010.767578	10911.084961
1009.644531	11057.866211
1008.521484	11135.568359
1007.398438	10912.760742
1006.274414	11019.386719
1005.151367	10985.805664
1004.027344	10867.716797
1002.902344	10892.000000
1001.778320	10918.494141
1000.653320	10893.852539
999.528320	10735.882813
998.403320	10764.613281
997.278320	10766.673828
996.152344	10742.083984
995.026367	10726.384766
993.900391	10621.897461
992.773438	10732.732422
991.646484	10674.884766
990.519531	10628.153320
989.392578	10703.423828
988.265625	10678.878906
987.137695	10492.510742
986.009766	10844.808594
984.881836	10707.234375
983.752930	10853.292969
982.624023	10653.757813
981.495117	10870.623047
980.366211	10806.221680
979.236328	10657.736328
978.106445	10681.926758
976.976563	10748.142578
975.846680	10515.710938
974.715820	10601.835938
973.585938	10579.582031
972.454102	10641.336914
971.323242	10634.552734
970.191406	10731.618164
969.060547	10740.278320
967.927734	10678.259766
966.795898	10627.309570
965.663086	10865.569336
964.530273	10931.571289
963.397461	11114.492188
962.264648	11319.390625
961.130859	11268.348633
959.997070	11515.016602
958.863281	11567.569336
957.729492	11465.808594
956.594727	11348.666992
955.459961	11394.608398
954.325195	11314.977539
953.189453	11316.860352
952.053711	11058.946289
950.917969	10730.708008
949.782227	10671.098633
948.646484	10778.728516
947.509766	10648.742188
946.373047	10518.813477
945.235352	10419.723633
944.098633	10333.866211
942.960938	10298.593750
941.823242	10261.139648
940.685547	10362.096680
939.546875	10087.446289
938.408203	10291.596680
937.269531	10201.486328
936.129883	10407.712891
934.991211	10155.237305
933.851563	10317.503906
932.711914	10413.897461
931.571289	10330.434570
930.431641	10369.779297
929.291016	10338.965820
928.149414	10531.684570
927.008789	10520.565430
925.867188	10509.450195
924.725586	10553.085938
923.583984	10423.739258
922.441406	10340.416016
921.299805	10405.941406
920.157227	10189.194336
919.013672	10287.534180
917.871094	10154.012695
916.727539	10112.381836
915.583984	10042.350586
914.439453	10053.212891
913.295898	10009.444336
912.151367	9959.141602
911.006836	9895.755859
909.861328	9679.551758
908.716797	9812.728516
907.571289	9827.987305
906.424805	9945.794922
905.279297	9893.386719
904.132813	9967.502930
902.986328	9864.958984
901.839844	9777.719727
900.692383	9784.242188
899.545898	9799.477539
898.398438	9853.920898
897.250000	9956.256836
896.102539	9697.057617
894.954102	9866.873047
893.805664	9816.768555
892.656250	9666.581055
891.507813	9829.759766
890.358398	9697.036133
889.208984	9749.222656
888.058594	9884.004883
886.908203	9688.319336
885.758789	9768.721680
884.607422	9725.240234
883.457031	9649.194336
882.305664	9677.425781
881.154297	9662.218750
880.002930	9666.554688
878.850586	9848.852539
877.698242	9753.332031
876.545898	9701.239258
875.393555	9631.818359
874.240234	9573.269531
873.086914	9644.818359
871.933594	9692.493164
870.780273	9683.806641
869.625977	9579.801758
868.471680	9516.994141
867.317383	9618.787109
866.162109	9449.916992
865.007813	9586.307617
863.852539	9521.388672
862.696289	9491.114258
861.541016	9556.022461
860.384766	9525.751953
859.228516	9575.488281
858.072266	9683.561523
856.915039	9605.737305
855.757813	9689.987305
854.600586	9320.589844
853.442383	9687.766602
852.285156	9396.260742
851.126953	9530.125977
849.968750	9681.195313
848.809570	9659.586914
847.650391	9601.316406
846.491211	9480.528320
845.332031	9553.847656
844.171875	9474.082031
843.012695	9420.212891
841.851563	9607.691406
840.691406	9588.281250
839.530273	9560.265625
838.369141	9534.414063
837.208008	9489.199219
836.046875	9564.529297
834.884766	9555.906250
833.722656	9659.152344
832.560547	9517.162109
831.397461	9620.368164
830.234375	9446.202148
829.071289	9631.049805
827.908203	9553.656250
826.744141	9450.516602
825.580078	9557.912109
824.416016	9579.364258
823.251953	9512.784180
822.086914	9678.041992
820.921875	9469.838867
819.756836	9465.542969
818.590820	9431.218750
817.425781	9600.630859
816.259766	9514.835938
815.092773	9420.505859
813.926758	9315.501953
812.759766	9364.803711
811.592773	9349.823242
810.424805	9364.830078
809.257813	9478.315430
808.089844	9409.802734
806.920898	9360.582031
805.752930	9324.219727
804.583984	9384.130859
803.415039	9388.411133
802.246094	9448.279297
801.076172	9497.431641
799.906250	9493.132813
798.736328	9339.269531
797.566406	9531.533203
796.395508	9529.362305
795.224609	9597.653320
794.053711	9665.911133
792.881836	9646.635742
791.710938	9697.780273
790.538086	9992.089844
789.366211	9872.511719
788.194336	9883.054688
787.021484	10021.498047
785.848633	9855.103516
784.674805	9603.551758
783.500977	9550.233398
782.327148	9690.752930
781.153320	9643.826172
779.979492	9496.862305
778.804688	9709.661133
777.629883	9607.434570
776.454102	9462.705078
775.279297	9520.097656
774.103516	9530.682617
772.927734	9547.639648
771.750977	9545.458984
770.575195	9551.778320
769.398438	9449.745117
768.220703	9515.553711
767.043945	9547.356445
765.866211	9623.726563
764.688477	9536.624023
763.510742	9674.500977
762.332031	9651.072266
761.153320	9542.810547
759.974609	9665.744141
758.794922	9826.783203
757.616211	9894.483398
756.436523	9981.224609
755.255859	9917.499023
754.076172	10173.648438
752.895508	10476.268555
751.714844	10581.848633
750.533203	11015.472656
749.352539	11180.133789
748.170898	11528.791016
746.988281	12141.696289
745.806641	12963.684570
744.624023	13962.897461
743.441406	15299.863281
742.258789	17709.792969
741.075195	20596.121094
739.891602	24028.230469
738.708008	28014.189453
737.523438	32272.802734
736.339844	36681.445313
735.155273	39406.050781
733.969727	40751.601563
732.785156	40278.171875
731.599609	37854.148438
730.414063	34315.835938
729.227539	30030.796875
728.041992	26211.380859
726.855469	21890.128906
725.667969	18834.798828
724.481445	16610.666016
723.293945	14758.136719
722.106445	13468.523438
720.918945	12474.149414
719.730469	11861.082031
718.541992	11462.869141
717.353516	10982.813477
716.164063	10614.420898
714.975586	10458.520508
713.786133	10138.755859
712.595703	9875.871094
711.406250	9953.430664
710.215820	9739.014648
709.025391	9820.767578
707.833984	9791.218750
706.642578	9839.339844
705.451172	9646.126953
704.259766	9694.257813
703.068359	9580.866211
701.875977	9457.041992
700.683594	9672.894531
699.490234	9482.034180
698.297852	9609.770508
697.104492	9697.643555
695.910156	9638.860352
694.716797	9929.803711
693.522461	9927.517578
692.328125	10063.373047
691.132813	10130.111328
689.938477	10368.368164
688.743164	10460.102539
687.547852	10353.137695
686.351563	10484.553711
685.155273	10291.934570
683.958984	10214.334961
682.762695	9950.832031
681.565430	10036.265625
680.368164	9912.834961
679.170898	9927.252930
677.973633	9803.903320
676.775391	9835.032227
675.577148	9763.916016
674.378906	9528.052734
673.179688	9771.926758
671.980469	9809.286133
670.781250	9636.104492
669.581055	9625.545898
668.381836	9631.659180
667.181641	9806.487305
665.980469	9822.967773
664.780273	9799.880859
663.579102	9955.814453
662.377930	9959.759766
661.175781	9926.252930
659.973633	10190.209961
658.771484	10050.605469
657.569336	10370.545898
656.367188	10540.676758
655.164063	10590.196289
653.960938	10756.041992
652.756836	10599.846680
651.552734	10800.915039
650.348633	10765.201172
649.144531	11038.788086
647.939453	10874.368164
646.735352	10932.024414
645.529297	10902.533203
644.324219	11051.402344
643.118164	11055.069336
641.912109	11133.356445
640.706055	11219.895508
639.499023	11312.610352
638.292969	11291.352539
637.084961	11433.708984
635.877930	11619.478516
634.669922	11716.151367
633.461914	11920.393555
632.253906	12424.550781
631.044922	12696.795898
629.836914	12702.131836
628.626953	12796.371094
627.417969	12783.075195
626.208008	12664.386719
624.998047	12523.024414
623.788086	12350.740234
622.577148	11988.537109
621.366211	11640.953125
620.155273	11343.071289
618.944336	11065.963867
617.732422	10784.857422
616.520508	10553.388672
615.308594	10423.081055
614.095703	10191.800781
612.882813	10092.556641
611.669922	9983.052734
610.457031	9902.444336
609.243164	9601.458008
608.029297	9780.469727
606.815430	9615.542969
605.600586	9395.113281
604.385742	9526.709961
603.170898	9491.583008
601.955078	9487.327148
600.740234	9318.542969
599.524414	9334.889648
598.307617	9439.622070
597.091797	9386.055664
595.875000	9342.787109
594.658203	9394.032227
593.440430	9515.081055
592.222656	9352.719727
591.004883	9410.083984
589.787109	9494.101563
588.568359	9420.085938
587.349609	9422.005859
586.130859	9389.058594
584.912109	9610.378906
583.692383	9503.603516
582.472656	9540.340820
581.251953	9636.481445
580.032227	9531.820313
578.811523	9709.839844
577.589844	9918.489258
576.369141	9674.630859
575.147461	9858.630859
573.925781	9780.636719
572.703125	10036.125000
571.481445	9978.577148
570.258789	10053.962891
569.035156	10174.286133
567.812500	10439.663086
566.588867	10318.729492
565.365234	10314.292969
564.140625	10358.875000
562.916992	10342.178711
561.692383	10307.116211
560.466797	10351.666992
559.242188	10398.236328
558.016602	10224.463867
556.791016	10181.301758
555.564453	10144.275391
554.337891	10125.613281
553.111328	10088.615234
551.884766	10035.333984
550.657227	10145.048828
549.429688	10158.988281
548.202148	9991.697266
546.974609	9783.768555
545.746094	10037.941406
544.517578	10218.743164
543.288086	10023.111328
542.058594	10069.596680
540.829102	10172.995117
539.599609	10119.811523
538.370117	10040.229492
537.139648	10159.817383
535.909180	10157.458984
534.677734	9992.619141
533.446289	9986.238281
532.214844	9906.777344
530.983398	9782.701172
529.750977	9715.498047
528.519531	9759.901367
527.286133	9704.902344
526.053711	9651.956055
524.820313	9550.379883
523.586914	9785.295898
522.353516	9805.313477
521.119141	9707.822266
519.884766	9575.944336
518.650391	9626.369141
517.415039	9587.693359
516.179688	9623.922852
514.944336	9441.597656
513.708984	9400.967773
