#Wave		#Intensity
2109.224609	4702.229492
2107.712891	4715.461426
2106.201172	4633.414551
2104.687500	4682.010254
2103.175781	4743.808105
2101.662109	4650.241211
2100.150391	4644.279785
2098.636719	4691.179688
2097.123047	4700.075684
2095.607422	4789.872070
2094.093750	4608.906250
2092.578125	4701.984375
2091.064453	4653.118652
2089.548828	4683.459473
2088.033203	4703.891113
2086.517578	4686.387207
2085.000000	4713.403809
2083.484375	4740.409180
2081.966797	4726.204590
2080.449219	4712.006348
2078.931641	4686.284180
2077.414063	4581.523926
2075.894531	4631.579590
2074.376953	4582.845215
2072.857422	4641.107422
2071.337891	4750.353516
2069.818359	4734.526367
2068.298828	4694.035645
2066.777344	4660.139160
2065.257813	4585.157715
2063.736328	4663.068359
2062.214844	4711.366211
2060.693359	4711.997559
2059.171875	4710.986328
2057.648438	4552.319336
2056.126953	4667.917480
2054.603516	4724.370117
2053.080078	4605.190918
2051.556641	4719.062500
2050.033203	4698.364746
2048.507813	4661.274902
2046.984375	4704.550293
2045.458984	4729.773438
2043.933594	4607.467773
2042.408203	4658.920898
2040.882813	4546.513184
2039.355469	4599.595215
2037.830078	4724.711914
2036.302734	4622.186523
2034.775391	4613.012695
2033.248047	4661.125000
2031.718750	4687.944824
2030.191406	4719.661133
2028.662109	4605.796875
2027.134766	4612.988770
2025.605469	4777.125977
2024.076172	4628.997559
2022.544922	4572.446289
2021.015625	4649.893555
2019.484375	4609.697266
2017.955078	4580.949707
2016.423828	4606.096191
2014.892578	4562.669922
2013.359375	4558.432129
2011.828125	4634.151367
2010.294922	4642.951172
2008.761719	4653.377930
2007.230469	4632.817383
2005.695313	4688.892090
2004.162109	4552.602051
2002.628906	4574.446777
2001.093750	4635.385742
1999.558594	4704.443359
1998.023438	4607.352539
1996.488281	4629.166992
1994.953125	4493.063477
1993.417969	4615.802734
1991.880859	4543.221680
1990.343750	4527.612793
1988.806641	4565.686035
1987.269531	4527.312012
1985.732422	4596.259766
1984.193359	4618.039063
1982.656250	4595.929688
1981.117188	4503.962891
1979.578125	4543.616699
1978.039063	4544.274414
1976.500000	4488.100098
1974.958984	4620.267090
1973.417969	4554.361816
1971.878906	4618.303223
1970.337891	4545.936523
1968.796875	4512.529785
1967.253906	4680.228027
1965.712891	4599.787598
1964.169922	4579.358398
1962.626953	4596.213379
1961.083984	4595.237793
1959.541016	4608.841797
1957.998047	4575.470703
1956.455078	4487.057617
1954.910156	4513.627441
1953.365234	4485.153809
1951.820313	4569.969727
1950.275391	4536.642090
1948.730469	4666.703125
1947.183594	4512.076172
1945.638672	4459.378906
1944.091797	4566.741699
1942.544922	4544.762695
1940.998047	4610.049316
1939.449219	4521.833984
1937.902344	4580.637207
1936.353516	4571.592285
1934.804688	4517.345215
1933.255859	4518.001953
1931.707031	4573.527832
1930.158203	4470.910645
1928.607422	4452.219238
1927.058594	4549.655762
1925.507813	4545.467285
1923.957031	4589.643066
1922.406250	4553.212402
1920.853516	4528.077148
1919.302734	4601.227539
1917.750000	4550.320801
1916.197266	4557.409668
1914.644531	4559.665039
1913.091797	4540.993164
1911.539063	4483.704102
1909.984375	4534.244141
1908.431641	4475.371582
1906.876953	4371.490234
1905.322266	4431.669434
1903.767578	4487.000488
1902.210938	4498.909668
1900.656250	4478.674316
1899.099609	4561.272461
1897.542969	4513.724609
1895.986328	4430.865723
1894.429688	4473.280762
1892.873047	4385.648926
1891.314453	4471.389160
1889.755859	4449.583496
1888.199219	4491.958008
1886.640625	4449.306152
1885.080078	4494.869629
1883.521484	4415.359863
1881.960938	4499.381348
1880.402344	4357.403320
1878.841797	4521.512695
1877.281250	4368.376953
1875.720703	4402.687988
1874.158203	4400.156250
1872.597656	4418.437012
1871.035156	4443.111816
1869.472656	4474.177246
1867.910156	4346.842285
1866.347656	4421.101563
1864.783203	4415.370117
1863.220703	4451.210938
1861.656250	4336.775879
1860.091797	4457.321289
1858.527344	4400.455078
1856.962891	4418.695313
1855.396484	4365.055664
1853.832031	4392.876465
1852.265625	4393.544922
1850.699219	4277.693848
1849.132813	4422.009766
1847.566406	4374.807129
1845.998047	4338.789551
1844.431641	4409.639648
1842.863281	4372.035645
1841.294922	4332.853027
1839.726563	4320.781250
1838.156250	4420.256836
1836.587891	4409.764648
1835.017578	4442.281738
1833.449219	4388.792969
1831.878906	4411.748047
1830.306641	4485.629883
1828.736328	4430.573730
1827.166016	4469.415527
1825.593750	4412.794922
1824.021484	4443.671875
1822.449219	4468.174805
1820.876953	4322.562988
1819.304688	4469.466797
1817.730469	4465.345215
1816.158203	4450.103516
1814.583984	4436.456055
1813.009766	4429.166992
1811.435547	4375.835938
1809.859375	4457.457520
1808.285156	4481.909668
1806.708984	4334.982910
1805.132813	4451.461426
1803.556641	4379.148438
1801.980469	4382.980469
1800.404297	4413.763184
1798.826172	4376.374512
1797.248047	4399.221191
1795.671875	4466.421387
1794.093750	4424.292480
1792.513672	4437.611816
1790.935547	4360.671387
1789.355469	4480.062988
1787.777344	4414.225098
1786.197266	4451.270020
1784.617188	4423.435059
1783.035156	4460.461914
1781.455078	4451.612793
1779.873047	4365.295898
1778.292969	4416.537598
1776.710938	4519.910156
1775.128906	4441.532715
1773.544922	4367.927246
1771.962891	4378.060059
1770.378906	4482.931641
1768.794922	4396.733398
1767.212891	4327.934082
1765.626953	4333.332031
1764.042969	4434.967773
1762.458984	4435.607910
1760.873047	4412.592285
1759.287109	4367.511230
1757.701172	4446.983887
1756.115234	4534.303223
1754.529297	4438.801758
1752.941406	4393.752441
1751.355469	4455.826172
1749.767578	4445.436035
1748.179688	4405.136230
1746.591797	4501.796387
1745.001953	4524.450684
1743.414063	4589.576172
1741.824219	4473.772949
1740.234375	4543.599609
1738.644531	4736.042969
1737.054688	4489.800293
1735.462891	4484.135254
1733.873047	4588.470215
1732.281250	4584.357910
1730.689453	4542.548828
1729.097656	4580.848145
1727.505859	4535.916992
1725.912109	4564.782227
1724.320313	4538.706055
1722.726563	4624.044434
1721.132813	4665.421875
1719.539063	4623.656250
1717.945313	4658.743164
1716.349609	4610.725098
1714.755859	4565.861816
1713.160156	4596.236816
1711.564453	4670.467285
1709.968750	4650.681641
1708.371094	4738.963867
1706.775391	4701.948242
1705.177734	4619.550781
1703.580078	4591.965820
1701.982422	4686.443359
1700.384766	4697.965820
1698.787109	4715.740234
1697.187500	4761.653809
1695.587891	4799.730957
1693.990234	4723.685059
1692.390625	4738.312012
1690.789063	4754.494629
1689.189453	4730.055176
1687.587891	4819.635742
1685.988281	4793.630859
1684.386719	4800.420410
1682.785156	4735.410156
1681.181641	4760.934082
1679.580078	4851.971680
1677.976563	4824.426270
1676.373047	4853.032715
1674.769531	4869.153320
1673.166016	4797.974609
1671.562500	4862.412598
1669.957031	4926.822266
1668.353516	4988.089355
1666.748047	4888.909668
1665.142578	4947.043457
1663.537109	4961.561523
1661.929688	5030.550293
1660.324219	5121.294922
1658.716797	5039.304688
1657.109375	5214.005371
1655.501953	5226.894531
1653.894531	5208.681152
1652.285156	5327.270996
1650.677734	5318.368652
1649.068359	5419.791992
1647.458984	5378.249023
1645.849609	5498.253906
1644.240234	5591.809570
1642.628906	5571.990723
1641.019531	5667.041504
1639.408203	5732.566895
1637.796875	5836.851563
1636.185547	5837.161621
1634.572266	5865.386719
1632.960938	6059.506836
1631.347656	6079.920898
1629.734375	6132.873047
1628.121094	6159.459961
1626.507813	6299.127930
1624.894531	6224.989746
1623.279297	6378.520508
1621.664063	6437.543457
1620.048828	6592.510742
1618.433594	6574.083496
1616.818359	6598.986816
1615.203125	6739.896973
1613.585938	6908.585449
1611.968750	6982.879883
1610.351563	7072.601074
1608.734375	7148.373535
1607.117188	7114.399414
1605.498047	7435.774414
1603.878906	7276.639160
1602.261719	7256.556152
1600.640625	7392.419922
1599.021484	7449.500977
1597.402344	7481.864258
1595.781250	7330.601074
1594.162109	7580.485352
1592.541016	7463.195313
1590.919922	7506.319336
1589.296875	7382.927246
1587.675781	7421.425293
1586.052734	7496.889648
1584.429688	7493.748047
1582.806641	7564.542480
1581.183594	7607.586914
1579.560547	7639.833984
1577.935547	7764.427246
1576.312500	7747.377930
1574.687500	7856.506836
1573.062500	7768.679688
1571.435547	7797.778809
1569.810547	7793.036133
1568.183594	7785.219727
1566.558594	7675.961914
1564.931641	7606.704590
1563.304688	7580.495117
1561.675781	7618.810059
1560.048828	7508.143066
1558.419922	7500.394043
1556.791016	7655.364746
1555.162109	7549.363281
1553.533203	7572.296875
1551.904297	7526.186523
1550.273438	7452.487793
1548.642578	7331.284180
1547.011719	7202.466309
1545.380859	7174.865723
1543.750000	7095.173340
1542.119141	7001.725586
1540.486328	7089.067383
1538.853516	6989.533691
1537.220703	6971.192383
1535.587891	6759.978027
1533.955078	6756.996582
1532.320313	6631.605469
1530.685547	6599.585938
1529.052734	6517.106445
1527.416016	6553.936035
1525.781250	6485.260254
1524.146484	6554.177734
1522.509766	6418.291016
1520.873047	6444.412598
1519.236328	6265.836914
1517.599609	6377.501465
1515.962891	6250.928223
1514.324219	6185.470215
1512.687500	6193.296875
1511.048828	6155.343750
1509.410156	6010.619141
1507.771484	6047.456055
1506.130859	5843.345215
1504.492188	5832.939941
1502.851563	5863.692871
1501.210938	5748.137695
1499.570313	5720.999023
1497.927734	5599.430664
1496.287109	5691.122070
1494.644531	5618.333984
1493.001953	5589.722656
1491.359375	5565.688965
1489.716797	5547.750977
1488.074219	5429.416992
1486.429688	5469.311035
1484.785156	5712.950195
1483.140625	5669.149414
1481.496094	5593.448242
1479.851563	5557.289063
1478.207031	5741.444336
1476.560547	5787.292969
1474.914063	5798.191895
1473.267578	5877.410156
1471.621094	5826.046875
1469.972656	6046.366699
1468.326172	6180.102539
1466.677734	6324.398926
1465.029297	6304.831543
1463.380859	6479.364258
1461.732422	6330.908691
1460.082031	6344.696289
1458.431641	6100.864746
1456.783203	5988.946289
1455.132813	5934.634766
1453.480469	5650.160645
1451.830078	5568.691895
1450.177734	5588.678223
1448.527344	5467.908691
1446.875000	5385.018066
1445.220703	5287.035645
1443.568359	5307.063477
1441.916016	5269.622559
1440.261719	5238.244629
1438.607422	5140.376953
1436.953125	5102.995117
1435.298828	5180.448242
1433.642578	5203.490723
1431.988281	5117.794922
1430.332031	5125.742188
1428.675781	5114.062988
1427.019531	5051.077637
1425.361328	4914.187500
1423.705078	4857.305664
1422.046875	4921.100586
1420.388672	4998.437500
1418.730469	4881.273438
1417.072266	4905.833984
1415.412109	4951.479004
1413.753906	4912.738770
1412.093750	5015.596680
1410.433594	4936.200195
1408.773438	5026.962891
1407.111328	4980.712402
1405.451172	4908.898438
1403.789063	5068.815430
1402.126953	5139.913574
1400.464844	5074.125977
1398.802734	5203.830078
1397.138672	5199.688965
1395.474609	5046.761719
1393.812500	5087.732910
1392.146484	5000.994629
1390.482422	4938.324707
1388.818359	4982.294434
1387.152344	4978.204590
1385.486328	4972.614746
1383.820313	4879.991211
1382.154297	4932.935547
1380.488281	4756.362793
1378.820313	4831.804688
1377.154297	5037.651855
1375.486328	4883.655273
1373.818359	4885.584473
1372.148438	4875.525879
1370.480469	4886.443359
1368.810547	4916.825195
1367.140625	4900.775391
1365.470703	4911.678711
1363.800781	4951.013672
1362.130859	4924.491211
1360.458984	4950.340820
1358.787109	4872.976074
1357.115234	4834.523926
1355.443359	4811.038574
1353.771484	4899.666504
1352.097656	4918.018555
1350.423828	4936.362793
1348.751953	4930.798340
1347.076172	4955.104492
1345.402344	4964.468262
1343.728516	4902.175781
1342.052734	4907.068848
1340.376953	4931.356445
1338.701172	4973.534180
1337.025391	4942.612793
1335.347656	5069.761719
1333.671875	4956.838867
1331.994141	5019.838379
1330.316406	5142.414551
1328.638672	5048.915527
1326.960938	5016.525879
1325.281250	5137.531250
1323.601563	5084.291992
1321.921875	5095.080566
1320.242188	5146.043945
1318.562500	5130.031738
1316.880859	5175.014160
1315.201172	5221.462891
1313.519531	5302.088379
1311.837891	5462.949707
1310.154297	5443.911133
1308.472656	5566.036621
1306.789063	5557.380859
1305.105469	5462.586426
1303.421875	5393.076172
1301.738281	5348.833496
1300.054688	5312.031250
1298.369141	5140.209961
1296.683594	5116.820801
1294.998047	5051.910645
1293.312500	5012.238281
1291.626953	4991.856445
1289.939453	4986.305664
1288.253906	4989.648926
1286.566406	4835.939941
1284.878906	4880.789551
1283.189453	4884.151855
1281.501953	5031.131836
1279.812500	5072.946289
1278.123047	5099.941895
1276.433594	5054.422852
1274.744141	4955.668945
1273.052734	4865.832031
1271.363281	4817.436035
1269.671875	4814.889648
1267.980469	4735.488281
1266.289063	4579.282715
1264.595703	4709.749512
1262.904297	4654.054688
1261.210938	4582.140625
1259.517578	4564.883301
1257.824219	4670.143066
1256.128906	4654.348633
1254.435547	4560.366211
1252.740234	4550.501953
1251.044922	4627.650391
1249.349609	4536.683594
1247.652344	4532.726563
1245.957031	4726.250488
1244.259766	4638.268066
1242.562500	4787.488770
1240.865234	4776.113770
1239.167969	4786.829590
1237.468750	4729.823730
1235.769531	4740.544434
1234.072266	4664.444824
1232.371094	4686.942871
1230.671875	4734.433105
1228.972656	4612.800781
1227.271484	4510.333496
1225.570313	4638.668945
1223.869141	4531.832031
1222.167969	4596.931641
1220.464844	4637.032227
1218.763672	4559.635254
1217.060547	4570.362305
1215.357422	4545.855957
1213.654297	4565.384766
1211.949219	4489.538574
1210.246094	4557.476563
1208.541016	4571.122559
1206.835938	4545.174805
1205.130859	4595.462891
1203.423828	4650.124512
1201.718750	4773.625488
1200.011719	4737.399902
1198.304688	4750.984375
1196.597656	4707.457520
1194.888672	4634.672363
1193.181641	4586.799805
1191.472656	4713.072754
1189.763672	4606.687012
1188.054688	4645.143066
1186.343750	4587.073242
1184.634766	4578.734375
1182.923828	4528.012695
1181.212891	4557.683105
1179.501953	4553.737793
1177.791016	4520.581543
1176.078125	4602.801758
1174.365234	4484.971680
1172.652344	4554.025391
1170.939453	4501.926270
1169.226563	4495.078125
1167.511719	4478.021973
1165.798828	4437.640137
1164.083984	4408.939941
1162.369141	4304.454102
1160.652344	4374.894043
1158.937500	4315.628906
1157.220703	4410.797363
1155.503906	4449.125000
1153.787109	4439.386230
1152.070313	4422.373047
1150.351563	4367.527832
1148.632813	4389.823242
1146.916016	4385.923828
1145.195313	4382.025879
1143.476563	4375.220703
1141.757813	4444.011230
1140.037109	4409.580078
1138.316406	4286.527344
1136.595703	4279.748047
1134.875000	4256.995117
1133.152344	4263.293457
1131.429688	4160.707520
1129.708984	4197.503906
1127.984375	4176.239258
1126.261719	4144.828613
1124.539063	4183.052734
1122.814453	3983.441650
1121.089844	3936.146973
1119.365234	3848.288818
1117.640625	3854.663086
1115.914063	3730.642334
1114.187500	3699.379395
1112.462891	3688.404053
1110.734375	3719.419922
1109.007813	3725.813965
1107.281250	3698.920410
1105.552734	3715.443115
1103.824219	3609.006104
1102.095703	3612.525391
1100.367188	3558.209473
1098.636719	3628.231689
1096.908203	3654.866211
1095.177734	3633.807861
1093.447266	3624.315186
1091.714844	3607.605469
1089.984375	3564.913086
1088.251953	3630.505371
1086.519531	3544.530273
1084.787109	3682.240967
1083.054688	3613.603027
1081.320313	3637.298584
1079.585938	3542.747070
1077.851563	3576.538086
1076.117188	3580.047363
1074.382813	3570.586426
1072.648438	3516.471191
1070.912109	3551.676270
1069.175781	3526.387939
1067.439453	3514.067139
1065.701172	3531.976318
1063.964844	3444.833984
1062.226563	3406.644043
1060.488281	3470.589600
1058.750000	3481.301025
1057.011719	3466.129883
1055.271484	3409.283447
1053.531250	3437.244385
1051.791016	3469.501953
1050.050781	3484.508545
1048.310547	3439.196289
1046.568359	3429.796143
1044.826172	3447.671143
1043.083984	3448.317627
1041.341797	3500.611816
1039.599609	3428.093262
1037.855469	3481.801270
1036.113281	3383.513184
1034.369141	3412.839111
1032.623047	3516.668945
1030.878906	3518.728760
1029.132813	3578.082275
1027.386719	3445.513672
1025.640625	3602.213135
1023.894531	3484.012939
1022.148438	3539.025391
1020.400391	3515.321777
1018.652344	3498.780518
1016.904297	3513.708496
1015.156250	3507.182861
1013.406250	3549.260254
1011.658203	3474.132324
1009.908203	3540.486328
1008.158203	3482.535156
1006.408203	3368.914063
1004.656250	3500.923584
1002.904297	3507.255859
1001.152344	3487.896729
999.400391	3561.287842
997.648438	3573.306885
995.896484	3511.160400
994.142578	3493.242432
992.388672	3462.503174
990.634766	3427.501953
988.878906	3497.954102
987.125000	3574.071289
985.369141	3506.311523
983.613281	3586.662598
981.857422	3563.059570
980.099609	3459.768555
978.343750	3449.010498
976.585938	3463.862793
974.828125	3373.464844
973.070313	3399.701904
971.310547	3414.554199
969.552734	3439.347900
967.792969	3404.452148
966.033203	3405.086426
964.273438	3445.486572
962.511719	3492.967285
960.750000	3391.369873
958.990234	3365.039307
957.226563	3352.909912
955.464844	3381.925049
953.703125	3369.796631
951.939453	3296.702148
950.175781	3354.061279
948.412109	3357.536621
946.648438	3366.677979
944.882813	3378.647949
943.117188	3424.603271
941.351563	3358.675293
939.585938	3352.234619
937.820313	3381.179199
936.052734	3323.796143
934.285156	3472.979004
932.517578	3429.743652
930.750000	3406.324219
928.982422	3347.573486
927.212891	3389.196777
925.443359	3295.151367
923.673828	3267.545166
921.904297	3283.734863
920.132813	3278.736084
918.361328	3301.973389
916.591797	3354.838623
914.818359	3354.059082
913.046875	3420.993896
911.275391	3310.187988
909.501953	3274.166748
907.728516	3170.494629
905.955078	3216.267578
904.179688	3177.474121
902.406250	3113.340820
900.630859	3190.079590
898.855469	3244.252686
897.080078	3142.137939
895.302734	3221.630127
893.525391	3164.595215
891.750000	3210.281738
889.970703	3077.326660
888.193359	3156.758789
886.416016	3227.718750
884.636719	3124.366455
882.857422	3096.940186
881.078125	3243.723633
879.296875	3127.798584
877.517578	3129.876953
875.736328	3193.722900
873.955078	3204.205322
872.173828	3129.088623
870.390625	3170.443604
868.609375	3145.860107
866.826172	3146.527344
865.042969	3119.156494
863.259766	3077.782959
861.474609	3070.057373
859.689453	3072.141357
857.904297	3036.408936
856.119141	3051.101318
854.333984	3051.787354
852.546875	3069.267822
850.761719	3071.348145
848.974609	3108.399902
847.185547	3018.162354
845.398438	3090.165283
843.609375	3060.084961
841.822266	3020.235107
840.031250	3079.610596
838.242188	3045.362061
836.453125	3057.218018
834.662109	3027.178955
832.871094	2995.757813
831.080078	3039.716064
829.289063	2956.679443
827.496094	2947.615723
825.703125	2977.606934
823.910156	3034.075928
822.117188	2995.725586
820.324219	2968.542236
818.529297	3044.479736
816.734375	3077.197510
814.939453	3072.296631
813.144531	3064.613037
811.347656	3090.341797
809.550781	3104.924561
807.755859	3133.414063
805.957031	2981.051270
804.160156	2972.006104
802.361328	3026.923584
800.564453	2991.459473
798.765625	2919.878174
796.964844	2977.547363
795.166016	2849.049072
793.365234	2844.212158
791.564453	2872.700195
789.763672	2823.439453
787.962891	2797.794434
786.160156	2891.483154
784.359375	2779.830811
782.556641	2867.932129
780.751953	2906.077881
778.949219	2829.154053
777.144531	2863.133057
775.339844	2819.507324
773.535156	2903.338623
771.730469	2884.650879
769.925781	2791.207031
768.119141	2737.948975
766.312500	2742.838623
764.505859	2787.848389
762.697266	2854.968262
760.890625	2859.825928
759.082031	2810.760742
757.273438	2753.425293
755.464844	2806.669678
753.654297	2788.045898
751.845703	2845.400391
750.035156	2789.490723
748.224609	2808.159912
746.412109	2774.369385
744.601563	2810.972412
742.789063	2796.511719
740.976563	2820.677979
739.164063	2789.673340
737.349609	2747.653809
735.537109	2809.028564
733.722656	2855.216064
731.908203	2814.587891
730.091797	2841.468750
728.277344	2822.894775
726.460938	2804.329590
724.644531	2745.857910
722.828125	2829.146484
721.009766	2785.829102
719.193359	2715.024170
717.375000	2739.132324
715.556641	2745.356934
713.736328	2765.322754
711.917969	2766.041260
710.097656	2698.071289
708.277344	2744.128662
706.457031	2688.553467
704.636719	2745.572998
702.814453	2717.472656
700.992188	2688.013184
699.169922	2600.951416
697.347656	2704.567139
695.523438	2732.719727
693.699219	2736.183594
691.875000	2713.606201
690.050781	2671.856445
688.226563	2727.386230
686.400391	2665.109619
684.574219	2716.506592
682.748047	2640.572998
680.921875	2727.533447
679.095703	2744.672363
677.267578	2812.415527
675.439453	2828.158203
673.611328	2850.729492
671.781250	2758.467529
669.953125	2827.508789
668.123047	2877.388916
666.292969	2863.045166
664.460938	2744.920166
662.630859	2863.049072
660.798828	2914.237305
658.966797	2884.886230
657.134766	2874.649658
655.302734	2939.437988
653.468750	2930.556396
651.634766	2987.120117
649.800781	2941.428955
647.966797	2948.905029
646.130859	3029.946045
644.294922	2997.897217
642.458984	3104.760498
640.623047	2970.602783
638.787109	2969.895264
636.949219	2962.384033
635.111328	2995.689209
633.273438	2891.606689
631.435547	2882.758789
629.595703	2914.699219
627.757813	2881.385010
625.917969	2876.621826
624.076172	2862.351074
622.236328	2803.267334
620.394531	2702.118164
618.552734	2748.987305
616.710938	2778.190186
614.869141	2746.319336
613.025391	2652.062012
611.183594	2671.772949
609.339844	2653.508789
607.494141	2590.518799
605.650391	2626.492676
603.804688	2663.804199
601.958984	2638.785400
600.113281	2581.275391
598.267578	2550.872070
596.419922	2628.774414
594.572266	2563.187500
592.724609	2543.633545
590.876953	2494.330078
589.027344	2504.553223
587.179688	2559.388184
585.330078	2458.750732
583.480469	2540.597656
581.628906	2510.267578
579.779297	2560.995850
577.927734	2544.178955
576.076172	2592.174316
574.222656	2474.125244
572.371094	2474.883301
570.517578	2448.658447
568.664063	2460.212402
566.810547	2465.018311
564.955078	2492.740479
563.101563	2447.666016
561.246094	2498.286133
559.390625	2469.397949
557.533203	2556.353760
555.677734	2550.356445
553.820313	2560.516113
551.962891	2643.349609
550.105469	2638.680664
548.246094	2507.559570
546.386719	2523.099121
544.527344	2495.603271
542.667969	2485.596191
540.808594	2506.504883
538.947266	2511.279785
537.085938	2462.319092
535.224609	2459.043945
533.363281	2461.140869
531.500000	2431.019775
529.638672	2461.304932
527.775391	2502.309326
525.910156	2606.339355
524.046875	2843.086426
522.181641	3386.753418
520.316406	4021.309570
518.451172	3880.974854
516.585938	3191.391113
514.718750	2796.821777
512.851563	2592.600830
510.984375	2444.708252
509.117188	2481.601318
507.250000	2423.464844
505.380859	2444.290283
503.511719	2453.067871
501.642578	2431.084473
499.771484	2479.968018
497.902344	2467.344727
496.031250	2433.346924
494.160156	2430.092041
492.287109	2444.201904
490.416016	2454.298828
488.542969	2481.745850
486.669922	2497.167236
484.796875	2500.572021
482.921875	2562.672363
481.046875	2510.043701
479.171875	2552.110840
477.296875	2459.517334
475.421875	2382.961182
473.544922	2305.109131
471.667969	2399.136719
469.791016	2387.907471
467.914063	2358.042725
466.035156	2312.218506
464.156250	2355.582031
462.277344	2263.211670
460.398438	2266.659912
458.519531	2222.230713
456.638672	2300.142334
454.757813	2299.591064
452.876953	2269.803467
450.994141	2244.015869
449.113281	2247.463135
447.230469	2282.779541
445.347656	2295.509033
443.462891	2227.264893
441.580078	2242.655273
439.695313	2309.779297
437.810547	2289.329834
435.925781	2319.280518
434.039063	2320.050537
432.152344	2302.263916
430.267578	2301.712158
428.378906	2268.040771
426.492188	2296.635498
424.603516	2259.008789
422.714844	2249.200439
420.826172	2276.455322
418.937500	2277.232910
417.046875	2293.884521
415.158203	2284.076904
413.265625	2312.618896
411.375000	2222.173096
409.484375	2355.124023
407.591797	2349.274414
405.699219	2256.242432
403.806641	2259.663818
401.912109	2248.559326
400.019531	2263.861084
