#Wave		#Intensity
1585.210938	14428.900391
1584.209961	14576.261719
1583.208984	14755.531250
1582.208008	14435.405273
1581.206055	14697.000000
1580.204102	14387.000000
1579.202148	14339.108398
1578.200195	14525.722656
1577.198242	14450.386719
1576.195313	14270.354492
1575.192383	14436.921875
1574.189453	14423.961914
1573.186523	14705.057617
1572.182617	14400.547852
1571.178711	14549.511719
1570.174805	14563.930664
1569.170898	14508.626953
1568.166992	14333.854492
1567.162109	14305.998047
1566.158203	14330.407227
1565.153320	14295.097656
1564.147461	14496.097656
1563.142578	14435.899414
1562.136719	14403.074219
1561.130859	14360.319336
1560.125000	14096.393555
1559.119141	14332.009766
1558.113281	14719.066406
1557.106445	14763.209961
1556.099609	14904.178711
1555.092773	14930.884766
1554.084961	14749.077148
1553.078125	15001.633789
1552.070313	14829.809570
1551.062500	14923.484375
1550.054688	14900.553711
1549.045898	14981.774414
1548.038086	15005.943359
1547.029297	14680.621094
1546.020508	14722.186523
1545.011719	14600.215820
1544.001953	14649.210938
1542.992188	14661.037109
1541.982422	14563.913086
1540.972656	14494.059570
1539.962891	14288.109375
1538.952148	14208.442383
1537.942383	14158.495117
1536.931641	14031.891602
1535.919922	14142.741211
1534.909180	13773.894531
1533.897461	13879.806641
1532.886719	13946.132813
1531.874023	14168.095703
1530.862305	13893.420898
1529.850586	13986.869141
1528.837891	14092.625000
1527.825195	13852.697266
1526.812500	13832.550781
1525.799805	13782.797852
1524.786133	13873.702148
1523.772461	14139.710938
1522.758789	14028.266602
1521.745117	13697.413086
1520.731445	13931.242188
1519.716797	13940.681641
1518.702148	13962.436523
1517.687500	13927.516602
1516.672852	13786.691406
1515.657227	14106.453125
1514.642578	14315.281250
1513.626953	13997.219727
1512.610352	14078.000977
1511.594727	13900.376953
1510.579102	14052.489258
1509.562500	14091.392578
1508.545898	13908.956055
1507.529297	14132.269531
1506.511719	13976.938477
1505.494141	14037.941406
1504.477539	14106.290039
1503.458984	14081.258789
1502.441406	14154.480469
1501.423828	14235.038086
1500.405273	14259.094727
1499.386719	13986.137695
1498.368164	14125.576172
1497.348633	14125.102539
1496.330078	14026.507813
1495.310547	13981.908203
1494.291016	14275.706055
1493.271484	14066.820313
1492.250977	14179.103516
1491.231445	14181.065430
1490.210938	14141.376953
1489.190430	14111.501953
1488.168945	14052.250000
1487.148438	13875.496094
1486.126953	14173.719727
1485.105469	14146.307617
1484.083984	14140.928711
1483.061523	13991.209961
1482.040039	14161.971680
1481.017578	14391.350586
1479.995117	14415.261719
1478.971680	14451.382813
1477.949219	14607.241211
1476.925781	14689.731445
1475.902344	14676.913086
1474.878906	14903.454102
1473.855469	15015.131836
1472.831055	15241.506836
1471.806641	15211.496094
1470.782227	15230.304688
1469.757813	15363.777344
1468.733398	15506.951172
1467.708008	15767.129883
1466.682617	15827.255859
1465.657227	16023.874023
1464.631836	16008.362305
1463.605469	16248.722656
1462.579102	16467.056641
1461.552734	16619.531250
1460.526367	16818.210938
1459.500000	16819.591797
1458.472656	16998.671875
1457.445313	16997.578125
1456.417969	16994.048828
1455.390625	16864.017578
1454.362305	16537.023438
1453.334961	16528.726563
1452.306641	16355.106445
1451.277344	15921.465820
1450.249023	15935.171875
1449.219727	15633.002930
1448.191406	15474.284180
1447.162109	15539.075195
1446.131836	15346.445313
1445.102539	15200.021484
1444.072266	15425.022461
1443.041992	15215.546875
1442.011719	15185.697266
1440.981445	15308.678711
1439.950195	15174.536133
1438.918945	15176.232422
1437.887695	15119.746094
1436.856445	15029.349609
1435.825195	14953.530273
1434.792969	15183.000000
1433.760742	14872.225586
1432.728516	14919.989258
1431.696289	14841.830078
1430.663086	14797.592773
1429.629883	14717.070313
1428.596680	14360.737305
1427.563477	14464.193359
1426.530273	14323.321289
1425.496094	14424.322266
1424.461914	14300.439453
1423.427734	14195.943359
1422.393555	14255.822266
1421.358398	14187.620117
1420.323242	13945.518555
1419.288086	14239.678711
1418.252930	14190.836914
1417.217773	14303.760742
1416.181641	14276.647461
1415.145508	14331.589844
1414.109375	14273.115234
1413.073242	14287.028320
1412.036133	14573.448242
1411.000000	14570.413086
1409.962891	14567.377930
1408.924805	14790.894531
1407.887695	14951.666992
1406.849609	14900.370117
1405.812500	15070.685547
1404.773438	15484.147461
1403.735352	15748.165039
1402.697266	15740.068359
1401.658203	16104.998047
1400.619141	16089.610352
1399.580078	16245.026367
1398.540039	15938.596680
1397.500977	16048.289063
1396.460938	15891.080078
1395.420898	16027.174805
1394.380859	15809.956055
1393.339844	15763.411133
1392.298828	15507.903320
1391.257813	15379.785156
1390.216797	15254.120117
1389.175781	15404.574219
1388.133789	15516.563477
1387.091797	15340.554688
1386.049805	15668.425781
1385.007813	15449.282227
1383.964844	15824.954102
1382.922852	15883.986328
1381.879883	16254.614258
1380.835938	16414.187500
1379.792969	16791.736328
1378.749023	16977.478516
1377.706055	16770.349609
1376.661133	17173.923828
1375.617188	17311.585938
1374.573242	17111.695313
1373.528320	17132.048828
1372.483398	16989.697266
1371.438477	16833.052734
1370.392578	16863.015625
1369.347656	17005.345703
1368.301758	16298.958984
1367.255859	16470.025391
1366.208984	16191.779297
1365.163086	16178.835938
1364.116211	15771.781250
1363.069336	15711.166992
1362.022461	15662.515625
1360.974609	15754.720703
1359.927734	15467.419922
1358.879883	15621.663086
1357.832031	15525.354492
1356.783203	15753.456055
1355.735352	15614.236328
1354.686523	15579.972656
1353.637695	15705.422852
1352.588867	15945.207031
1351.539063	16282.576172
1350.490234	16562.632813
1349.440430	16773.503906
1348.390625	16846.183594
1347.339844	17304.486328
1346.290039	17536.486328
1345.239258	17782.666016
1344.188477	18276.167969
1343.137695	18595.822266
1342.085938	18687.046875
1341.034180	19244.238281
1339.982422	19558.730469
1338.930664	19680.587891
1337.878906	19600.421875
1336.826172	19800.609375
1335.773438	19786.953125
1334.720703	20302.835938
1333.667969	19633.826172
1332.614258	19556.121094
1331.561523	19466.582031
1330.507813	19267.939453
1329.453125	19093.099609
1328.399414	18681.171875
1327.344727	18542.093750
1326.290039	18222.906250
1325.235352	18339.951172
1324.180664	18317.138672
1323.125000	18220.892578
1322.070313	17987.304688
1321.014648	17858.011719
1319.958008	17648.273438
1318.902344	17303.695313
1317.845703	17141.490234
1316.789063	17121.322266
1315.732422	16876.423828
1314.675781	16794.822266
1313.618164	16621.033203
1312.560547	16225.087891
1311.502930	16195.671875
1310.445313	16128.457031
1309.386719	15980.938477
1308.329102	16076.783203
1307.270508	15875.017578
1306.210938	15510.416016
1305.152344	15490.623047
1304.092773	15520.401367
1303.033203	15248.128906
1301.973633	15365.231445
1300.914063	15121.408203
1299.853516	14955.505859
1298.792969	14848.614258
1297.732422	14770.052734
1296.671875	14901.267578
1295.611328	14678.999023
1294.549805	14734.793945
1293.488281	14500.875977
1292.426758	14401.272461
1291.364258	14285.231445
1290.302734	14341.057617
1289.240234	14265.080078
1288.177734	14332.648438
1287.114258	14466.048828
1286.051758	14225.470703
1284.988281	14243.625977
1283.924805	14061.961914
1282.861328	14209.403320
1281.796875	14455.469727
1280.732422	14525.239258
1279.667969	14503.378906
1278.603516	14643.553711
1277.539063	14994.963867
1276.473633	14832.179688
1275.408203	15159.931641
1274.342773	15105.106445
1273.277344	15153.515625
1272.210938	15361.380859
1271.145508	15130.688477
1270.079102	14972.763672
1269.011719	14831.310547
1267.945313	14814.110352
1266.877930	14546.239258
1265.810547	14559.553711
1264.743164	14509.632813
1263.674805	14150.683594
1262.607422	14098.528320
1261.539063	13786.622070
1260.470703	13893.668945
1259.401367	13813.525391
1258.333008	13815.273438
1257.263672	13746.871094
1256.194336	13781.359375
1255.125000	13603.136719
1254.054688	13513.788086
1252.985352	13438.493164
1251.915039	13444.984375
1250.843750	13533.207031
1249.773438	13495.310547
1248.702148	13723.542969
1247.630859	13379.887695
1246.559570	13526.378906
1245.488281	13567.829102
1244.416016	13702.553711
1243.343750	13569.057617
1242.271484	13507.888672
1241.199219	13390.804688
1240.125977	13462.528320
1239.053711	13212.699219
1237.980469	13699.056641
1236.906250	13409.690430
1235.833008	13444.090820
1234.758789	13336.474609
1233.684570	13412.766602
1232.610352	13600.716797
1231.536133	13472.195313
1230.460938	13420.481445
1229.385742	13315.304688
1228.310547	13375.241211
1227.235352	13488.612305
1226.159180	13592.637695
1225.083008	13352.750977
1224.006836	13280.216797
1222.930664	13472.469727
1221.853516	13276.875000
1220.777344	13281.007813
1219.700195	13422.074219
1218.622070	13454.017578
1217.544922	13216.830078
1216.466797	13146.744141
1215.388672	13176.403320
1214.310547	13206.048828
1213.232422	13249.588867
1212.153320	13251.394531
1211.074219	13308.805664
1209.995117	13164.655273
1208.916016	13289.222656
1207.835938	13379.002930
1206.755859	13295.117188
1205.675781	13324.678711
1204.595703	13150.591797
1203.514648	13240.320313
1202.434570	13244.427734
1201.353516	13361.845703
1200.271484	13509.269531
1199.190430	13219.747070
1198.108398	13179.940430
1197.026367	13050.038086
1195.944336	13262.080078
1194.862305	13067.544922
1193.779297	13159.417969
1192.696289	12752.597656
1191.613281	12849.113281
1190.530273	12850.974609
1189.446289	12774.392578
1188.362305	13057.672852
1187.278320	12685.896484
1186.194336	12738.510742
1185.109375	12417.671875
1184.024414	12617.814453
1182.939453	12635.844727
1181.854492	12464.967773
1180.768555	12605.086914
1179.683594	12496.458984
1178.597656	12595.071289
1177.510742	12350.692383
1176.424805	12428.580078
1175.337891	12478.825195
1174.250977	12326.632813
1173.164063	12353.879883
1172.077148	12431.696289
1170.989258	12337.076172
1169.901367	12451.630859
1168.813477	12517.884766
1167.724609	12613.971680
1166.636719	12416.038086
1165.547852	12227.372070
1164.458984	12353.301758
1163.369141	12509.013672
1162.280273	12492.552734
1161.190430	12464.625977
1160.100586	12255.503906
1159.010742	12358.354492
1157.919922	12369.448242
1156.829102	12453.889648
1155.738281	12508.500000
1154.647461	12446.230469
1153.555664	12386.277344
1152.464844	12500.411133
1151.373047	12456.499023
1150.280273	12533.937500
1149.188477	12652.541016
1148.095703	12654.387695
1147.002930	12432.025391
1145.910156	12669.510742
1144.817383	12524.992188
1143.723633	12542.864258
1142.629883	12437.292969
1141.536133	12587.724609
1140.441406	12354.234375
1139.347656	12353.848633
1138.252930	12527.037109
1137.158203	12462.677734
1136.062500	12560.430664
1134.967773	12420.770508
1133.872070	12488.823242
1132.776367	12513.498047
1131.679688	12437.801758
1130.583984	12467.036133
1129.487305	12500.816406
1128.390625	12746.568359
1127.292969	12522.750977
1126.196289	12620.291016
1125.098633	12742.844727
1124.000977	12444.014648
1122.903320	12716.831055
1121.804688	12352.116211
1120.706055	12369.922852
1119.607422	12585.687500
1118.508789	12282.659180
1117.409180	12562.033203
1116.310547	12427.416016
1115.210938	12308.771484
1114.110352	12356.106445
1113.010742	12310.247070
1111.910156	12328.022461
1110.809570	12432.108398
1109.708984	12402.156250
1108.607422	12381.297852
1107.506836	12383.148438
1106.405273	12239.745117
1105.303711	12327.847656
1104.201172	12084.699219
1103.098633	12372.386719
1101.996094	12122.529297
1100.893555	12076.818359
1099.791016	12232.853516
1098.687500	12012.645508
1097.583984	12275.109375
1096.480469	12175.037109
1095.376953	12224.473633
1094.272461	12122.190430
1093.167969	12155.768555
1092.063477	12087.490234
1090.958008	11915.157227
1089.853516	11941.969727
1088.748047	11729.032227
1087.642578	12090.525391
1086.536133	11983.898438
1085.430664	11927.040039
1084.324219	11924.439453
1083.217773	11942.171875
1082.110352	12113.487305
1081.003906	12031.806641
1079.896484	11898.232422
1078.789063	11985.924805
1077.680664	12075.833984
1076.573242	12032.584961
1075.464844	12029.957031
1074.356445	12065.668945
1073.247070	11977.351563
1072.138672	12078.430664
1071.029297	11859.427734
1069.919922	12007.805664
1068.809570	12072.764648
1067.700195	11943.995117
1066.589844	11986.418945
1065.479492	11945.524414
1064.368164	12127.478516
1063.257813	12034.810547
1062.146484	11903.935547
1061.035156	12025.043945
1059.922852	11990.926758
1058.811523	11803.934570
1057.699219	11853.049805
1056.586914	11879.668945
1055.473633	11859.090820
1054.361328	11782.360352
1053.248047	11795.499023
1052.134766	11900.692383
1051.021484	11788.082031
1049.907227	11875.273438
1048.792969	11978.133789
1047.678711	11903.714844
1046.564453	11862.972656
1045.449219	11999.401367
1044.333984	11875.701172
1043.218750	11857.403320
1042.103516	12049.764648
1040.987305	11737.929688
1039.871094	11910.071289
1038.754883	11880.580078
1037.638672	12146.650391
1036.521484	11978.330078
1035.404297	12038.361328
1034.287109	11957.400391
1033.169922	12131.497070
1032.051758	12178.032227
1030.933594	12065.786133
1029.815430	12020.655273
1028.697266	12131.998047
1027.578125	12127.092773
1026.458984	12155.700195
1025.339844	12032.408203
1024.220703	12157.044922
1023.100586	12020.410156
1021.980469	12236.509766
1020.860352	12300.761719
1019.740234	12186.493164
1018.619141	11998.663086
1017.498047	12051.770508
1016.376953	12223.026367
1015.255859	12198.039063
1014.133789	12277.808594
1013.011719	12230.535156
1011.889648	12118.678711
1010.767578	12276.362305
1009.644531	12233.571289
1008.521484	12155.177734
1007.398438	12263.780273
1006.274414	12236.592773
1005.151367	12162.697266
1004.027344	12228.961914
1002.902344	12248.496094
1001.778320	12396.970703
1000.653320	12189.733398
999.528320	12235.928711
998.403320	12075.474609
997.278320	11886.212891
996.152344	12067.910156
995.026367	11934.240234
993.900391	11809.507813
992.773438	12053.240234
991.646484	11833.124023
990.519531	11799.446289
989.392578	11756.911133
988.265625	11996.000000
987.137695	12128.571289
986.009766	11941.922852
984.881836	11786.377930
983.752930	11814.780273
982.624023	11794.441406
981.495117	11871.544922
980.366211	11682.940430
979.236328	11791.020508
978.106445	11795.042969
976.976563	11858.798828
975.846680	11736.719727
974.715820	11769.497070
973.585938	11711.608398
972.454102	11751.006836
971.323242	11755.026367
970.191406	11843.003906
969.060547	11685.740234
967.927734	11868.660156
966.795898	12009.543945
965.663086	11865.589844
964.530273	12165.318359
963.397461	12021.392578
962.264648	12111.373047
961.130859	12234.396484
959.997070	12425.721680
958.863281	12319.339844
957.729492	12309.984375
956.594727	12404.203125
955.459961	12443.299805
954.325195	12229.074219
953.189453	12239.562500
952.053711	12005.661133
950.917969	11914.938477
949.782227	11943.091797
948.646484	11883.223633
947.509766	11856.376953
946.373047	11759.166992
945.235352	11862.082031
944.098633	11863.832031
942.960938	11711.738281
941.823242	11783.831055
940.685547	11746.052734
939.546875	11692.916016
938.408203	11644.193359
937.269531	11819.411133
936.129883	11718.004883
934.991211	11765.855469
933.851563	11682.055664
932.711914	11767.177734
931.571289	11828.138672
930.431641	11770.685547
929.291016	11890.797852
928.149414	11747.890625
927.008789	11686.109375
925.867188	11808.346680
924.725586	11788.184570
923.583984	11627.909180
922.441406	11645.006836
921.299805	11642.399414
920.157227	11764.504883
919.013672	11624.060547
917.871094	11687.065430
916.727539	11433.003906
915.583984	11367.048828
914.439453	11373.243164
913.295898	11425.318359
912.151367	11383.436523
911.006836	11267.315430
909.861328	11507.159180
908.716797	11290.640625
907.571289	11349.218750
906.424805	11604.154297
905.279297	11440.114258
904.132813	11481.167969
902.986328	11400.088867
901.839844	11436.771484
900.692383	11473.435547
899.545898	11527.515625
898.398438	11439.958984
897.250000	11509.267578
896.102539	11378.200195
894.954102	11454.019531
893.805664	11682.171875
892.656250	11414.051758
891.507813	11542.026367
890.358398	11411.092773
889.208984	11556.406250
888.058594	11573.374023
886.908203	11355.570313
885.758789	11190.021484
884.607422	11446.060547
883.457031	11350.076172
882.305664	11327.974609
881.154297	11355.821289
880.002930	11084.084961
878.850586	11155.377930
877.698242	11228.807617
876.545898	11085.270508
875.393555	11171.694336
874.240234	11093.284180
873.086914	11045.257813
871.933594	11205.319336
870.780273	11163.788086
869.625977	11074.614258
868.471680	11100.272461
867.317383	11060.956055
866.162109	11069.284180
865.007813	11151.198242
863.852539	11140.025391
862.696289	11280.297852
861.541016	11230.165039
860.384766	11290.340820
859.228516	11104.020508
858.072266	11056.120117
856.915039	11047.138672
855.757813	11111.618164
854.600586	11111.266602
853.442383	11100.116211
852.285156	11093.288086
851.126953	11207.341797
849.968750	11204.807617
848.809570	11221.690430
847.650391	11076.782227
846.491211	11080.745117
845.332031	11026.490234
844.171875	10972.258789
843.012695	10883.567383
841.851563	11077.178711
840.691406	10994.964844
839.530273	11151.848633
838.369141	11097.644531
837.208008	10849.719727
836.046875	10935.502930
834.884766	10982.514648
833.722656	10969.268555
832.560547	10940.972656
831.397461	10764.318359
830.234375	10723.181641
829.071289	10948.576172
827.908203	10793.525391
826.744141	10962.943359
825.580078	10973.342773
824.416016	11011.652344
823.251953	10727.912109
822.086914	10912.211914
820.921875	11049.217773
819.756836	10821.440430
818.590820	10872.606445
817.425781	11003.090820
816.259766	11019.886719
815.092773	10835.188477
813.926758	10869.157227
812.759766	10986.666016
811.592773	10909.198242
810.424805	10876.736328
809.257813	10777.916992
808.089844	10863.228516
806.920898	10860.756836
805.752930	10935.310547
804.583984	10712.498047
803.415039	10733.584961
802.246094	10891.500000
801.076172	10784.277344
799.906250	10820.291016
798.736328	10747.317383
797.566406	10648.743164
796.395508	10823.579102
795.224609	10791.220703
794.053711	10852.803711
792.881836	10965.578125
791.710938	10854.258789
790.538086	10862.451172
789.366211	10759.736328
788.194336	10925.732422
787.021484	10916.845703
785.848633	11020.920898
784.674805	10905.474609
783.500977	10843.338867
782.327148	10906.889648
781.153320	10812.838867
779.979492	10682.639648
778.804688	10688.715820
777.629883	10803.309570
776.454102	10822.117188
775.279297	10864.312500
774.103516	10644.934570
772.927734	10670.141602
771.750977	10897.253906
770.575195	10767.266602
769.398438	10798.797852
768.220703	10736.858398
767.043945	10702.551758
765.866211	10704.352539
764.688477	10810.155273
763.510742	10684.604492
762.332031	10544.258789
761.153320	10713.656250
759.974609	10872.372070
758.794922	10787.200195
757.616211	10875.876953
756.436523	10797.099609
755.255859	10995.902344
754.076172	11054.813477
752.895508	11266.170898
751.714844	11263.591797
750.533203	11305.464844
749.352539	11556.826172
748.170898	11797.492188
746.988281	11983.050781
745.806641	12521.692383
744.624023	13155.231445
743.441406	13716.608398
742.258789	14831.422852
741.075195	16137.995117
739.891602	18115.701172
738.708008	19929.884766
737.523438	21394.851563
736.339844	23066.017578
735.155273	24299.552734
733.969727	25175.941406
732.785156	25117.429688
731.599609	24362.978516
730.414063	23404.347656
729.227539	21693.593750
728.041992	20080.568359
726.855469	18337.644531
725.667969	16917.824219
724.481445	15595.534180
723.293945	14800.249023
722.106445	14150.581055
720.918945	13574.872070
719.730469	12972.072266
718.541992	12695.616211
717.353516	12221.587891
716.164063	11873.937500
714.975586	11604.228516
713.786133	11336.743164
712.595703	11126.115234
711.406250	11052.131836
710.215820	10969.780273
709.025391	10767.778320
707.833984	10721.216797
706.642578	10672.577148
705.451172	10670.123047
704.259766	10602.635742
703.068359	10564.541016
701.875977	10658.568359
700.683594	10586.934570
699.490234	10536.291992
698.297852	10588.349609
697.104492	10608.958008
695.910156	10690.295898
694.716797	10706.681641
693.522461	10875.886719
692.328125	10798.033203
691.132813	10747.417969
689.938477	10535.735352
688.743164	10748.744141
687.547852	10731.630859
686.351563	10756.336914
685.155273	10724.596680
683.958984	10814.072266
682.762695	10500.291016
681.565430	10838.331055
680.368164	10524.687500
679.170898	10586.981445
677.973633	10634.635742
676.775391	10640.532227
675.577148	10679.804688
674.378906	10422.872070
673.179688	10645.686523
671.980469	10595.279297
670.781250	10567.823242
669.581055	10775.860352
668.381836	10765.041016
667.181641	10600.087891
665.980469	10764.240234
664.780273	10672.231445
663.579102	11067.334961
662.377930	10966.973633
661.175781	11110.080078
659.973633	11128.316406
658.771484	10959.381836
657.569336	11183.473633
656.367188	11207.913086
655.164063	11157.528320
653.960938	11246.369141
652.756836	11395.406250
651.552734	11396.927734
650.348633	11514.716797
649.144531	11601.313477
647.939453	11696.170898
646.735352	11616.702148
645.529297	11562.161133
644.324219	11567.785156
643.118164	11583.771484
641.912109	11535.492188
640.706055	11441.640625
639.499023	11565.382813
638.292969	11506.781250
637.084961	11562.107422
635.877930	11646.394531
634.669922	11674.751953
633.461914	11632.731445
632.253906	11630.041992
631.044922	11672.860352
629.836914	11732.203125
628.626953	11752.233398
627.417969	11840.468750
626.208008	11463.666992
624.998047	11560.191406
623.788086	11642.209961
622.577148	11416.473633
621.366211	11325.048828
620.155273	11402.934570
618.944336	11088.665039
617.732422	11240.846680
616.520508	11153.668945
615.308594	11113.965820
614.095703	10942.320313
612.882813	10785.182617
611.669922	10811.539063
610.457031	10561.783203
609.243164	10689.115234
608.029297	10470.395508
606.815430	10577.097656
605.600586	10529.360352
604.385742	10430.194336
603.170898	10359.877930
601.955078	10334.850586
600.740234	10385.928711
599.524414	10239.592773
598.307617	10504.458008
597.091797	10333.499023
595.875000	10271.517578
594.658203	10310.222656
593.440430	10069.597656
592.222656	10371.150391
591.004883	10436.489258
589.787109	10239.099609
588.568359	10238.778320
587.349609	10291.791992
586.130859	10190.963867
584.912109	10438.753906
583.692383	10196.489258
582.472656	10364.232422
581.251953	10456.083984
580.032227	10381.960938
578.811523	10365.217773
577.589844	10426.290039
576.369141	10538.509766
575.147461	10476.713867
573.925781	10552.039063
572.703125	10381.845703
571.481445	10469.426758
570.258789	10634.666992
569.035156	10656.732422
567.812500	10682.873047
566.588867	10854.077148
565.365234	10790.274414
564.140625	10863.338867
562.916992	10779.142578
561.692383	10543.920898
560.466797	10851.698242
559.242188	10763.480469
558.016602	11005.783203
556.791016	10703.419922
555.564453	10629.569336
554.337891	10786.112305
553.111328	10653.170898
551.884766	10658.848633
550.657227	10741.936523
549.429688	10607.058594
548.202148	10765.458008
546.974609	10636.744141
545.746094	10640.380859
544.517578	10743.720703
543.288086	10631.374023
542.058594	10864.833008
540.829102	10732.174805
539.599609	11020.389648
538.370117	11011.734375
537.139648	10797.853516
535.909180	10677.520508
534.677734	10811.120117
533.446289	10889.833008
532.214844	10903.544922
530.983398	10797.503906
529.750977	10705.715820
528.519531	10719.458984
527.286133	10672.350586
526.053711	10736.787109
524.820313	10669.422852
523.586914	10610.195313
522.353516	10938.020508
521.119141	10890.912109
519.884766	11013.957031
518.650391	11098.469727
517.415039	10974.427734
516.179688	10955.687500
514.944336	10560.586914
513.708984	10374.040039
