#Wave		#Intensity
2109.224609	2575.227295
2107.712891	2626.500244
2106.201172	2687.115967
2104.687500	2593.952881
2103.175781	2578.516113
2101.662109	2630.840088
2100.150391	2560.880127
2098.636719	2611.533447
2097.123047	2543.259521
2095.607422	2560.872559
2094.093750	2590.033447
2092.578125	2597.726807
2091.064453	2593.866211
2089.548828	2553.714355
2088.033203	2663.668945
2086.517578	2559.209473
2085.000000	2603.170654
2083.484375	2586.127197
2081.966797	2578.978516
2080.449219	2581.718262
2078.931641	2574.573730
2077.414063	2465.327637
2075.894531	2510.898926
2074.376953	2625.588379
2072.857422	2577.295898
2071.337891	2547.124023
2069.818359	2567.962402
2068.298828	2577.278809
2066.777344	2581.657959
2065.257813	2612.339600
2063.736328	2601.916504
2062.214844	2555.345215
2060.693359	2604.085205
2059.171875	2618.309814
2057.648438	2566.838135
2056.126953	2582.706299
2054.603516	2573.944580
2053.080078	2619.345947
2051.556641	2638.474365
2050.033203	2623.144287
2048.507813	2583.218750
2046.984375	2554.788818
2045.458984	2523.092285
2043.933594	2597.949707
2042.408203	2582.644775
2040.882813	2503.449463
2039.355469	2579.901123
2037.830078	2580.986572
2036.302734	2603.356934
2034.775391	2640.450439
2033.248047	2562.964111
2031.718750	2539.508057
2030.191406	2581.499268
2028.662109	2567.862549
2027.134766	2534.609131
2025.605469	2534.067627
2024.076172	2603.811035
2022.544922	2601.620605
2021.015625	2576.557373
2019.484375	2531.903076
2017.955078	2647.315186
2016.423828	2472.041748
2014.892578	2559.665771
2013.359375	2552.591309
2011.828125	2569.995850
2010.294922	2551.502197
2008.761719	2590.103271
2007.230469	2553.675537
2005.695313	2650.952148
2004.162109	2529.766602
2002.628906	2599.302734
2001.093750	2575.938477
1999.558594	2565.615723
1998.023438	2594.384277
1996.488281	2671.988525
1994.953125	2606.302490
1993.417969	2597.609619
1991.880859	2549.866943
1990.343750	2521.667236
1988.806641	2621.975586
1987.269531	2551.491455
1985.732422	2594.846436
1984.193359	2519.521484
1982.656250	2657.123291
1981.117188	2615.937988
1979.578125	2633.250732
1978.039063	2577.470947
1976.500000	2537.952393
1974.958984	2552.023682
1973.417969	2603.419922
1971.878906	2620.716797
1970.337891	2599.068848
1968.796875	2590.406250
1967.253906	2518.501221
1965.712891	2517.966309
1964.169922	2627.660400
1962.626953	2594.688965
1961.083984	2539.046875
1959.541016	2577.387451
1957.998047	2573.601074
1956.455078	2563.339111
1954.910156	2578.984619
1953.365234	2612.427979
1951.820313	2594.072754
1950.275391	2556.310303
1948.730469	2583.266846
1947.183594	2569.781006
1945.638672	2616.125732
1944.091797	2605.871826
1942.544922	2568.146484
1940.998047	2591.839844
1939.449219	2618.754395
1937.902344	2526.134277
1936.353516	2625.718506
1934.804688	2579.956299
1933.255859	2624.605713
1931.707031	2585.318115
1930.158203	2554.114502
1928.607422	2608.419678
1927.058594	2536.904785
1925.507813	2600.864990
1923.957031	2481.018799
1922.406250	2580.422363
1920.853516	2620.161377
1919.302734	2514.886719
1917.750000	2554.622559
1916.197266	2566.964844
1914.644531	2547.100830
1913.091797	2602.901611
1911.539063	2544.413330
1909.984375	2534.220703
1908.431641	2495.075928
1906.876953	2557.273682
1905.322266	2545.476318
1903.767578	2413.109131
1902.210938	2595.833984
1900.656250	2592.070801
1899.099609	2472.630615
1897.542969	2554.029297
1895.986328	2522.975830
1894.429688	2580.244873
1892.873047	2590.936279
1891.314453	2527.795166
1889.755859	2488.750244
1888.199219	2565.229004
1886.640625	2558.270752
1885.080078	2543.297607
1883.521484	2629.335693
1881.960938	2564.663330
1880.402344	2554.505615
1878.841797	2512.307617
1877.281250	2519.786133
1875.720703	2605.737793
1874.158203	2544.340820
1872.597656	2532.596924
1871.035156	2589.681152
1869.472656	2510.723877
1867.910156	2542.190674
1866.347656	2572.044678
1864.783203	2598.687500
1863.220703	2470.230225
1861.656250	2524.057861
1860.091797	2485.168213
1858.527344	2615.666260
1856.962891	2556.006104
1855.396484	2477.205078
1853.832031	2484.665771
1852.265625	2549.597168
1850.699219	2622.481689
1849.132813	2637.885986
1847.566406	2579.891602
1845.998047	2485.233154
1844.431641	2558.069336
1842.863281	2598.985352
1841.294922	2555.395020
1839.726563	2521.385498
1838.156250	2563.876465
1836.587891	2598.383789
1835.017578	2537.309082
1833.449219	2512.886475
1831.878906	2541.013916
1830.306641	2537.293701
1828.736328	2562.220947
1827.166016	2537.813477
1825.593750	2534.095947
1824.021484	2517.656494
1822.449219	2491.683350
1820.876953	2591.312256
1819.304688	2563.744629
1817.730469	2531.421631
1816.158203	2588.082275
1814.583984	2560.532471
1813.009766	2491.704346
1811.435547	2549.924805
1809.859375	2584.309326
1808.285156	2498.061523
1806.708984	2503.880859
1805.132813	2581.086182
1803.556641	2493.307129
1801.980469	2483.266113
1800.404297	2569.938965
1798.826172	2483.802490
1797.248047	2625.904053
1795.671875	2536.623047
1794.093750	2556.680176
1792.513672	2630.575684
1790.935547	2539.766602
1789.355469	2588.304932
1787.777344	2613.082031
1786.197266	2528.663330
1784.617188	2583.501221
1783.035156	2554.484619
1781.455078	2614.037842
1779.873047	2580.283447
1778.292969	2480.152832
1776.710938	2572.871826
1775.128906	2596.029053
1773.544922	2551.248535
1771.962891	2594.932373
1770.378906	2577.014648
1768.794922	2622.252930
1767.212891	2594.866455
1765.626953	2558.022949
1764.042969	2622.168945
1762.458984	2597.954102
1760.873047	2565.864014
1759.287109	2585.819092
1757.701172	2552.168457
1756.115234	2684.017578
1754.529297	2647.208740
1752.941406	2652.950684
1751.355469	2589.387695
1749.767578	2591.989990
1748.179688	2604.037109
1746.591797	2594.042236
1745.001953	2602.936035
1743.414063	2522.142822
1741.824219	2586.104980
1740.234375	2629.594482
1738.644531	2682.499756
1737.054688	2680.360352
1735.462891	2698.654297
1733.873047	2639.941895
1732.281250	2677.088867
1730.689453	2657.673828
1729.097656	2647.689453
1727.505859	2658.119629
1725.912109	2660.696777
1724.320313	2686.813721
1722.726563	2662.708984
1721.132813	2710.776367
1719.539063	2681.971436
1717.945313	2744.126953
1716.349609	2720.030029
1714.755859	2742.965332
1713.160156	2751.787109
1711.564453	2837.375488
1709.968750	2744.356445
1708.371094	2811.116943
1706.775391	2851.231201
1705.177734	2863.150879
1703.580078	2726.381836
1701.982422	2835.337402
1700.384766	2825.350098
1698.787109	2802.854492
1697.187500	2796.005615
1695.587891	2803.230469
1693.990234	2858.907959
1692.390625	2811.419189
1690.789063	2845.197021
1689.189453	2844.593994
1687.587891	2859.608887
1685.988281	2860.563965
1684.386719	2811.563232
1682.785156	2809.406250
1681.181641	2866.547363
1679.580078	2943.945313
1677.976563	2871.570801
1676.373047	2836.653564
1674.769531	2928.040527
1673.166016	2905.596191
1671.562500	2867.576660
1669.957031	2986.944580
1668.353516	2913.093994
1666.748047	3122.734619
1665.142578	2961.686035
1663.537109	3084.045654
1661.929688	3049.148438
1660.324219	3062.506348
1658.716797	3159.872803
1657.109375	3207.422119
1655.501953	3298.495361
1653.894531	3215.388916
1652.285156	3293.985352
1650.677734	3377.210693
1649.068359	3379.600830
1647.458984	3517.145020
1645.849609	3476.014893
1644.240234	3504.780273
1642.628906	3569.240967
1641.019531	3588.660645
1639.408203	3646.868408
1637.796875	3664.711182
1636.185547	3696.507080
1634.572266	3777.916992
1632.960938	3791.068115
1631.347656	3880.173828
1629.734375	3874.698730
1628.121094	3914.162354
1626.507813	3942.764648
1624.894531	3980.647705
1623.279297	3961.217529
1621.664063	3926.313232
1620.048828	3995.132813
1618.433594	4000.472412
1616.818359	3925.352783
1615.203125	4057.551025
1613.585938	4010.289063
1611.968750	4139.319824
1610.351563	4071.963135
1608.734375	4196.288574
1607.117188	4215.482422
1605.498047	4274.836426
1603.878906	4267.746582
1602.261719	4333.240723
1600.640625	4409.513672
1599.021484	4447.163574
1597.402344	4359.791016
1595.781250	4312.571777
1594.162109	4441.232910
1592.541016	4352.373535
1590.919922	4393.078125
1589.296875	4398.306641
1587.675781	4332.632813
1586.052734	4205.346680
1584.429688	4347.729492
1582.806641	4336.018555
1581.183594	4248.852539
1579.560547	4435.784180
1577.935547	4382.499023
1576.312500	4383.101563
1574.687500	4486.794922
1573.062500	4382.766113
1571.435547	4509.484863
1569.810547	4434.710938
1568.183594	4455.285645
1566.558594	4529.647461
1564.931641	4491.797363
1563.304688	4410.944824
1561.675781	4562.069824
1560.048828	4473.557129
1558.419922	4434.214355
1556.791016	4371.862793
1555.162109	4369.391602
1553.533203	4521.896484
1551.904297	4465.701172
1550.273438	4384.989258
1548.642578	4479.121582
1547.011719	4459.764648
1545.380859	4579.896973
1543.750000	4479.307129
1542.119141	4446.172363
1540.486328	4387.011230
1538.853516	4390.664551
1537.220703	4397.378418
1535.587891	4509.713379
1533.955078	4488.849609
1532.320313	4494.006836
1530.685547	4488.452637
1529.052734	4548.667969
1527.416016	4488.054688
1525.781250	4503.907715
1524.146484	4492.240723
1522.509766	4480.578125
1520.873047	4467.393066
1519.236328	4385.474609
1517.599609	4331.081055
1515.962891	4258.387695
1514.324219	4303.267578
1512.687500	4287.080078
1511.048828	4157.985352
1509.410156	4134.207520
1507.771484	4174.498535
1506.130859	4028.736328
1504.492188	4055.311035
1502.851563	4005.662842
1501.210938	3920.985840
1499.570313	3982.607666
1497.927734	3963.470947
1496.287109	3953.479492
1494.644531	3891.724121
1493.001953	3854.351318
1491.359375	3900.700195
1489.716797	3904.423828
1488.074219	3877.720215
1486.429688	3872.321045
1484.785156	3796.975586
1483.140625	3738.385254
1481.496094	3702.619385
1479.851563	3726.134277
1478.207031	3701.020996
1476.560547	3653.133545
1474.914063	3760.168457
1473.267578	3703.178467
1471.621094	3668.982666
1469.972656	3616.589111
1468.326172	3640.084961
1466.677734	3677.223145
1465.029297	3611.210938
1463.380859	3657.436768
1461.732422	3688.482178
1460.082031	3642.213135
1458.431641	3711.131836
1456.783203	3707.298584
1455.132813	3732.246094
1453.480469	3687.520996
1451.830078	3629.188477
1450.177734	3705.602295
1448.527344	3582.214355
1446.875000	3711.562012
1445.220703	3588.225586
1443.568359	3684.242188
1441.916016	3609.351318
1440.261719	3661.479980
1438.607422	3698.471680
1436.953125	3650.824951
1435.298828	3659.097412
1433.642578	3548.040771
1431.988281	3592.573975
1430.332031	3362.305664
1428.675781	3440.067627
1427.019531	3335.190186
1425.361328	3367.659180
1423.705078	3374.469971
1422.046875	3354.130615
1420.388672	3400.143799
1418.730469	3378.299561
1417.072266	3428.808594
1415.412109	3331.625000
1413.753906	3303.782959
1412.093750	3266.915527
1410.433594	3222.534668
1408.773438	3229.360840
1407.111328	3341.547607
1405.451172	3277.615234
1403.789063	3320.532959
1402.126953	3352.902344
1400.464844	3260.434326
1398.802734	3373.994385
1397.138672	3478.485107
1395.474609	3363.505615
1393.812500	3376.295410
1392.146484	3354.527100
1390.482422	3332.768311
1388.818359	3279.485107
1387.152344	3337.318604
1385.486328	3297.565430
1383.820313	3302.847656
1382.154297	3371.139404
1380.488281	3382.402344
1378.820313	3416.154785
1377.154297	3499.368896
1375.486328	3566.057617
1373.818359	3533.806152
1372.148438	3554.009766
1370.480469	3515.782471
1368.810547	3483.562256
1367.140625	3512.746582
1365.470703	3437.127197
1363.800781	3493.248291
1362.130859	3414.673096
1360.458984	3448.333496
1358.787109	3381.767334
1357.115234	3424.392090
1355.443359	3372.810059
1353.771484	3467.732178
1352.097656	3416.162598
1350.423828	3584.241699
1348.751953	3577.480225
1347.076172	3720.061768
1345.402344	3879.003906
1343.728516	3978.166260
1342.052734	3959.383789
1340.376953	4139.057129
1338.701172	4229.145020
1337.025391	4301.295898
1335.347656	4373.415039
1333.671875	4473.826660
1331.994141	4425.148438
1330.316406	4355.629395
1328.638672	4418.732422
1326.960938	4382.012695
1325.281250	4415.298828
1323.601563	4292.244141
1321.921875	4321.068848
1320.242188	4184.694824
1318.562500	4217.993164
1316.880859	4068.313721
1315.201172	4009.417480
1313.519531	3938.651855
1311.837891	3902.107178
1310.154297	3880.439941
1308.472656	3876.612305
1306.789063	3743.544434
1305.105469	3649.150391
1303.421875	3682.497070
1301.738281	3665.354004
1300.054688	3597.754395
1298.369141	3639.992676
1296.683594	3594.681396
1294.998047	3543.457031
1293.312500	3416.626221
1291.626953	3361.015381
1289.939453	3383.988281
1288.253906	3359.528809
1286.566406	3298.040039
1284.878906	3233.615479
1283.189453	3241.785400
1281.501953	3312.137207
1279.812500	3272.916260
1278.123047	3257.391846
1276.433594	3240.394043
1274.744141	3250.031250
1273.052734	3363.191895
1271.363281	3303.300293
1269.671875	3296.654541
1267.980469	3269.319580
1266.289063	3308.491211
1264.595703	3312.188965
1262.904297	3216.925049
1261.210938	3151.237061
1259.517578	3191.875000
1257.824219	3142.457275
1256.128906	3081.255615
1254.435547	3051.063477
1252.740234	3068.085693
1251.044922	3039.384033
1249.349609	3093.260498
1247.652344	2984.966309
1245.957031	2991.670654
1244.259766	3049.941162
1242.562500	2965.296875
1240.865234	2973.473389
1239.167969	2972.811035
1237.468750	2948.595459
1235.769531	2972.958496
1234.072266	3000.253174
1232.371094	2965.749023
1230.671875	2962.146240
1228.972656	3001.187744
1227.271484	2900.550049
1225.570313	2926.359131
1223.869141	2861.049561
1222.167969	2988.226074
1220.464844	2893.554932
1218.763672	2897.314209
1217.060547	2915.753174
1215.357422	2875.470215
1213.654297	2835.205322
1211.949219	2878.586670
1210.246094	2814.868896
1208.541016	2793.708008
1206.835938	2826.805420
1205.130859	2812.980225
1203.423828	2774.246826
1201.718750	2827.838379
1200.011719	2827.205078
1198.304688	2883.689209
1196.597656	2852.294678
1194.888672	2815.058350
1193.181641	2851.016602
1191.472656	2829.892090
1189.763672	2826.331787
1188.054688	2868.112549
1186.343750	2759.262939
1184.634766	2852.206543
1182.923828	2904.183838
1181.212891	2799.782227
1179.501953	2823.989258
1177.791016	2899.306641
1176.078125	2870.910156
1174.365234	2930.123047
1172.652344	2894.433594
1170.939453	2978.421875
1169.226563	2863.952637
1167.511719	2956.661621
1165.798828	2945.788086
1164.083984	2870.768311
1162.369141	2950.292969
1160.652344	2955.458252
1158.937500	2940.222656
1157.220703	2923.537109
1155.503906	2899.576904
1153.787109	2888.731445
1152.070313	2872.067871
1150.351563	2819.027344
1148.632813	2856.222412
1146.916016	2809.027832
1145.195313	2882.567139
1143.476563	2912.451660
1141.757813	2865.275391
1140.037109	2823.933594
1138.316406	2769.532715
1136.595703	2832.827148
1134.875000	2731.971436
1133.152344	2718.285400
1131.429688	2772.837402
1129.708984	2698.187988
1127.984375	2739.659424
1126.261719	2715.827637
1124.539063	2664.447998
1122.814453	2673.995850
1121.089844	2602.351318
1119.365234	2687.279785
1117.640625	2673.629150
1115.914063	2665.779541
1114.187500	2655.036133
1112.462891	2689.189941
1110.734375	2600.263916
1109.007813	2602.569336
1107.281250	2539.751709
1105.552734	2475.515381
1103.824219	2505.330078
1102.095703	2462.822510
1100.367188	2518.651367
1098.636719	2555.662842
1096.908203	2443.803223
1095.177734	2457.696777
1093.447266	2470.139160
1091.714844	2430.584473
1089.984375	2492.118164
1088.251953	2592.599609
1086.519531	2486.655518
1084.787109	2458.675049
1083.054688	2453.787842
1081.320313	2469.093994
1079.585938	2480.067139
1077.851563	2421.839600
1076.117188	2523.616455
1074.382813	2440.909424
1072.648438	2523.907227
1070.912109	2402.350342
1069.175781	2493.958252
1067.439453	2444.443359
1065.701172	2474.110596
1063.964844	2554.127197
1062.226563	2422.630371
1060.488281	2495.430176
1058.750000	2523.619629
1057.011719	2428.159912
1055.271484	2551.213379
1053.531250	2514.706299
1051.791016	2409.256592
1050.050781	2502.066650
1048.310547	2454.107178
1046.568359	2460.724365
1044.826172	2418.537109
1043.083984	2475.384033
1041.341797	2456.166992
1039.599609	2507.241455
1037.855469	2387.643799
1036.113281	2364.158203
1034.369141	2471.119141
1032.623047	2482.017334
1030.878906	2444.198242
1029.132813	2394.937500
1027.386719	2514.680664
1025.640625	2403.861572
1023.894531	2506.370850
1022.148438	2460.001953
1020.400391	2516.666992
1018.652344	2490.342285
1016.904297	2445.438232
1015.156250	2470.612305
1013.406250	2424.303467
1011.658203	2398.022949
1009.908203	2501.772217
1008.158203	2451.201904
1006.408203	2447.782471
1004.656250	2464.353271
1002.904297	2396.696289
1001.152344	2447.521729
999.400391	2444.104980
997.648438	2467.792725
995.896484	2421.588379
994.142578	2460.953613
992.388672	2453.259766
990.634766	2455.545166
988.878906	2439.306396
987.125000	2478.630371
985.369141	2449.575928
983.613281	2426.229736
981.857422	2469.799561
980.099609	2489.154785
978.343750	2467.237793
976.585938	2423.992676
974.828125	2403.522461
973.070313	2331.874268
971.310547	2416.628662
969.552734	2416.070801
967.792969	2449.614258
966.033203	2341.085693
964.273438	2472.626465
962.511719	2423.778320
960.750000	2468.644775
958.990234	2442.527588
957.226563	2555.476563
955.464844	2452.746826
953.703125	2479.126465
951.939453	2474.299072
950.175781	2546.024414
948.412109	2403.707031
946.648438	2493.835449
944.882813	2394.094482
943.117188	2409.119141
941.351563	2452.456055
939.585938	2357.040039
937.820313	2411.690918
936.052734	2418.206787
934.285156	2375.206299
932.517578	2346.368896
930.750000	2357.136719
928.982422	2321.248047
927.212891	2397.030029
925.443359	2344.192139
923.673828	2428.409180
921.904297	2330.392578
920.132813	2345.383545
918.361328	2325.074951
916.591797	2282.193604
914.818359	2291.540527
913.046875	2327.686523
911.275391	2270.729736
909.501953	2275.842041
907.728516	2251.347168
905.955078	2269.145752
904.179688	2308.072021
902.406250	2332.892578
900.630859	2316.856934
898.855469	2319.133789
897.080078	2338.302490
895.302734	2347.609863
893.525391	2279.521729
891.750000	2397.160400
889.970703	2340.343506
888.193359	2366.514404
886.416016	2299.890137
884.636719	2274.055420
882.857422	2211.698730
881.078125	2218.206787
879.296875	2262.632813
877.517578	2205.938477
875.736328	2182.962158
873.955078	2221.750732
872.173828	2152.476318
870.390625	2231.936035
868.609375	2208.974365
866.826172	2222.480225
865.042969	2234.577881
863.259766	2217.237061
861.474609	2219.521240
859.689453	2189.583496
857.904297	2128.847656
856.119141	2202.561768
854.333984	2249.643311
852.546875	2243.518555
850.761719	2209.411621
848.974609	2193.506348
847.185547	2240.544922
845.398438	2224.639404
843.609375	2233.904053
841.822266	2212.416504
840.031250	2125.266602
838.242188	2166.677246
836.453125	2185.722412
834.662109	2201.965576
832.871094	2187.489502
831.080078	2189.767822
829.289063	2194.835693
827.496094	2197.110596
825.703125	2170.096680
823.910156	2131.940186
822.117188	2107.741699
820.324219	2158.813232
818.529297	2177.813232
816.734375	2171.729736
814.939453	2141.972900
813.144531	2130.330811
811.347656	2186.904053
809.550781	2165.514404
807.755859	2119.089600
805.957031	2113.027100
804.160156	2150.080078
802.361328	2127.327881
800.564453	2146.288818
798.765625	2162.460938
796.964844	2152.226074
795.166016	2065.595459
793.365234	2151.213379
791.564453	2115.995605
789.763672	2054.420166
787.962891	2123.326172
786.160156	2082.589355
784.359375	2143.133057
782.556641	2174.524902
780.751953	2083.890869
778.949219	2066.765625
777.144531	2057.963623
775.339844	2101.814697
773.535156	2093.008057
771.730469	2077.281006
769.925781	2147.401855
768.119141	2139.974365
766.312500	2156.075928
764.505859	2111.293701
762.697266	2099.729492
760.890625	2095.085205
759.082031	2176.162109
757.273438	2167.354736
755.464844	2148.877930
753.654297	2195.344482
751.845703	2215.544678
750.035156	2223.306885
748.224609	2301.476318
746.412109	2385.129639
744.601563	2457.703613
742.789063	2577.150391
740.976563	2751.712646
739.164063	3135.796875
737.349609	3678.244141
735.537109	4162.544922
733.722656	4620.434082
731.908203	4794.305176
730.091797	4424.041504
728.277344	4044.313232
726.460938	3349.500977
724.644531	2908.269531
722.828125	2496.143799
721.009766	2414.385254
719.193359	2298.280518
717.375000	2167.104736
715.556641	2151.468994
713.736328	2204.561279
711.917969	2157.319824
710.097656	2099.110352
708.277344	2065.650391
706.457031	2100.861572
704.636719	2034.469482
702.814453	2077.905762
700.992188	2040.365234
699.169922	2050.855713
697.347656	2155.973389
695.523438	2101.986572
693.699219	2133.016846
691.875000	2194.183594
690.050781	2185.441650
688.226563	2132.868164
686.400391	2178.925781
684.574219	2200.315674
682.748047	2194.317627
680.921875	2221.167480
679.095703	2148.123535
677.267578	2231.055420
675.439453	2158.043457
673.611328	2295.623535
671.781250	2206.227295
669.953125	2308.198242
668.123047	2340.440430
666.292969	2237.437012
664.460938	2258.755127
662.630859	2290.985352
660.798828	2340.944824
658.966797	2218.933350
657.134766	2241.599121
655.302734	2395.198730
653.468750	2349.627197
651.634766	2316.347412
649.800781	2393.489014
647.966797	2388.831055
646.130859	2405.973389
644.294922	2344.107666
642.458984	2404.827637
640.623047	2352.521240
638.787109	2331.544678
636.949219	2209.881348
635.111328	2269.214111
633.273438	2268.673584
631.435547	2253.175293
629.595703	2245.841064
627.757813	2288.798340
625.917969	2199.929443
624.076172	2206.197510
622.236328	2109.241455
620.394531	2112.812012
618.552734	2072.939941
616.710938	2110.447266
614.869141	2073.308350
613.025391	2116.223389
611.183594	1999.082886
609.339844	2040.639038
607.494141	2036.085449
605.650391	2051.862793
603.804688	2041.888550
601.958984	1892.393921
600.113281	1981.325317
598.267578	1944.295288
596.419922	1970.904053
594.572266	1973.140137
592.724609	1944.256104
590.876953	1958.671265
589.027344	1928.451782
587.179688	1986.128418
585.330078	1995.116089
583.480469	1966.260498
581.628906	1957.684448
579.779297	1959.918213
577.927734	1960.800415
576.076172	1938.730469
574.222656	1985.509033
572.371094	1920.261108
570.517578	1925.198730
568.664063	2007.015381
566.810547	1953.945068
564.955078	2020.885742
563.101563	1943.576172
561.246094	1955.239136
559.390625	2040.991699
557.533203	2039.156860
555.677734	1901.321655
553.820313	1919.713989
551.962891	1892.336914
550.105469	1908.031250
548.246094	1857.800415
546.386719	1877.530029
544.527344	1881.114746
542.667969	1894.107544
540.808594	1877.526733
538.947266	1875.733887
537.085938	1880.658447
535.224609	1944.672607
533.363281	1894.527954
531.500000	1981.328125
529.638672	1944.618774
527.775391	1918.660645
525.910156	2064.414063
524.046875	2294.585449
522.181641	2882.628662
520.316406	3569.582520
518.451172	3362.350098
516.585938	2545.610107
514.718750	2106.992676
512.851563	1980.607666
510.984375	1893.109253
509.117188	1821.714844
507.250000	1829.307739
505.380859	1902.452515
503.511719	1860.532837
501.642578	1802.586426
499.771484	1812.849854
497.902344	1764.298462
496.031250	1801.291382
494.160156	1851.625977
492.287109	1836.490601
490.416016	1850.739014
488.542969	1854.300659
486.669922	1757.760132
484.796875	1739.992432
482.921875	1775.594482
481.046875	1749.828491
479.171875	1776.077026
477.296875	1796.980713
475.421875	1771.227783
473.544922	1842.754761
471.667969	1807.678223
469.791016	1791.263550
467.914063	1774.856567
466.035156	1717.191528
464.156250	1731.419312
462.277344	1711.046631
460.398438	1722.608276
458.519531	1759.432129
456.638672	1774.965210
454.757813	1724.028564
452.876953	1706.339355
450.994141	1711.244873
449.113281	1758.653076
447.230469	1770.183350
445.347656	1675.495850
443.462891	1725.532959
441.580078	1729.100342
439.695313	1668.984619
437.810547	1785.305908
435.925781	1727.857422
434.039063	1732.746216
432.152344	1719.076660
430.267578	1856.475830
428.378906	1793.765747
426.492188	1764.197510
424.603516	1795.554321
422.714844	1748.789673
420.826172	1774.840942
418.937500	1759.860352
417.046875	1731.657959
415.158203	1768.274902
413.265625	1782.395874
411.375000	1788.578369
409.484375	1785.506470
407.591797	1807.540771
405.699219	1821.638428
403.806641	1889.876587
401.912109	1870.938721
400.019531	1852.009888
