#Wave		#Intensity
1585.210938	14833.518555
1584.209961	14803.546875
1583.208984	14825.451172
1582.208008	14712.528320
1581.206055	14711.976563
1580.204102	14803.760742
1579.202148	14893.011719
1578.200195	14720.296875
1577.198242	14619.980469
1576.195313	14851.342773
1575.192383	14661.291992
1574.189453	14827.743164
1573.186523	14575.475586
1572.182617	14714.469727
1571.178711	14644.166992
1570.174805	14710.865234
1569.170898	14441.399414
1568.166992	14530.515625
1567.162109	14664.394531
1566.158203	14673.798828
1565.153320	14389.634766
1564.147461	14496.097656
1563.142578	14522.937500
1562.136719	14569.655273
1561.130859	14715.785156
1560.125000	14648.121094
1559.119141	14781.749023
1558.113281	14873.088867
1557.106445	15269.887695
1556.099609	15542.361328
1555.092773	15608.658203
1554.084961	15555.783203
1553.078125	15564.970703
1552.070313	15621.295898
1551.062500	16012.481445
1550.054688	16175.333984
1549.045898	16568.722656
1548.038086	16798.326172
1547.029297	17067.492188
1546.020508	17373.716797
1545.011719	17464.265625
1544.001953	17946.150391
1542.992188	18321.343750
1541.982422	18713.712891
1540.972656	18749.445313
1539.962891	18837.138672
1538.952148	18959.437500
1537.942383	19103.949219
1536.931641	19082.679688
1535.919922	18908.095703
1534.909180	18649.521484
1533.897461	18423.187500
1532.886719	18271.089844
1531.874023	17955.974609
1530.862305	17645.929688
1529.850586	17276.734375
1528.837891	16932.386719
1527.825195	16632.619141
1526.812500	16392.214844
1525.799805	16174.120117
1524.786133	16222.583984
1523.772461	15632.125977
1522.758789	15480.912109
1521.745117	15502.364258
1520.731445	15129.363281
1519.716797	15217.426758
1518.702148	15253.703125
1517.687500	15132.285156
1516.672852	14845.879883
1515.657227	14936.389648
1514.642578	14999.775391
1513.626953	14900.663086
1512.610352	15069.860352
1511.594727	15047.053711
1510.579102	15024.255859
1509.562500	14969.491211
1508.545898	14880.320313
1507.529297	14909.200195
1506.511719	15014.270508
1505.494141	15168.448242
1504.477539	15160.391602
1503.458984	14813.327148
1502.441406	15038.674805
1501.423828	15141.149414
1500.405273	14885.139648
1499.386719	14921.329102
1498.368164	14861.793945
1497.348633	15032.916992
1496.330078	15054.333008
1495.310547	14940.849609
1494.291016	14847.028320
1493.271484	14868.467773
1492.250977	15036.957031
1491.231445	14965.226563
1490.210938	14881.275391
1489.190430	14907.584961
1488.168945	15173.883789
1487.148438	14744.704102
1486.126953	15042.748047
1485.105469	15240.321289
1484.083984	15445.153320
1483.061523	15380.790039
1482.040039	15534.141602
1481.017578	15296.160156
1479.995117	15632.833008
1478.971680	15732.256836
1477.949219	15741.214844
1476.925781	16192.422852
1475.902344	16352.739258
1474.878906	16469.025391
1473.855469	16729.333984
1472.831055	17021.269531
1471.806641	17662.128906
1470.782227	17699.951172
1469.757813	18032.980469
1468.733398	18458.566406
1467.708008	19081.519531
1466.682617	19379.914063
1465.657227	19800.076172
1464.631836	20298.058594
1463.605469	20976.156250
1462.579102	21371.359375
1461.552734	21956.390625
1460.526367	22122.304688
1459.500000	22938.240234
1458.472656	23383.824219
1457.445313	23568.806641
1456.417969	23692.876953
1455.390625	23678.228516
1454.362305	23386.304688
1453.334961	22890.230469
1452.306641	22710.427734
1451.277344	22333.806641
1450.249023	21675.429688
1449.219727	20825.375000
1448.191406	20553.833984
1447.162109	19964.238281
1446.131836	19394.312500
1445.102539	18880.460938
1444.072266	18604.689453
1443.041992	18098.492188
1442.011719	17704.111328
1440.981445	17482.119141
1439.950195	17037.097656
1438.918945	17188.738281
1437.887695	16697.900391
1436.856445	16481.144531
1435.825195	16562.531250
1434.792969	16295.014648
1433.760742	16250.450195
1432.728516	16157.468750
1431.696289	15911.991211
1430.663086	15598.835938
1429.629883	15786.786133
1428.596680	15771.404297
1427.563477	15446.375000
1426.530273	15155.341797
1425.496094	14985.335938
1424.461914	15238.490234
1423.427734	15092.707031
1422.393555	14956.651367
1421.358398	14997.029297
1420.323242	14718.525391
1419.288086	14725.122070
1418.252930	14601.325195
1417.217773	14690.023438
1416.181641	14674.896484
1415.145508	14732.169922
1414.109375	14917.287109
1413.073242	14788.750977
1412.036133	14751.908203
1411.000000	15158.726563
1409.962891	15042.270508
1408.924805	15292.199219
1407.887695	15570.938477
1406.849609	15895.333984
1405.812500	15981.140625
1404.773438	16512.410156
1403.735352	16932.708984
1402.697266	16960.472656
1401.658203	17325.146484
1400.619141	17516.429688
1399.580078	17611.408203
1398.540039	17653.431641
1397.500977	17543.949219
1396.460938	17927.349609
1395.420898	17731.324219
1394.380859	17775.687500
1393.339844	17358.732422
1392.298828	17174.955078
1391.257813	17442.751953
1390.216797	17247.023438
1389.175781	17147.402344
1388.133789	17211.025391
1387.091797	17279.419922
1386.049805	17474.937500
1385.007813	17468.890625
1383.964844	17577.953125
1382.922852	17655.800781
1381.879883	17982.910156
1380.835938	18300.296875
1379.792969	18468.992188
1378.749023	18450.759766
1377.706055	18482.832031
1376.661133	18569.964844
1375.617188	18999.412109
1374.573242	19115.119141
1373.528320	18886.175781
1372.483398	18796.093750
1371.438477	18911.769531
1370.392578	18960.429688
1369.347656	19183.617188
1368.301758	19270.447266
1367.255859	18979.607422
1366.208984	19056.882813
1365.163086	19260.746094
1364.116211	19122.957031
1363.069336	19178.656250
1362.022461	19234.332031
1360.974609	19149.146484
1359.927734	19495.964844
1358.879883	19503.814453
1357.832031	19521.201172
1356.783203	19862.949219
1355.735352	19842.097656
1354.686523	20169.330078
1353.637695	20069.761719
1352.588867	20639.880859
1351.539063	21100.160156
1350.490234	21405.410156
1349.440430	22070.148438
1348.390625	22448.878906
1347.339844	23208.341797
1346.290039	23436.724609
1345.239258	24207.556641
1344.188477	24497.486328
1343.137695	25284.419922
1342.085938	25233.933594
1341.034180	26075.062500
1339.982422	26637.718750
1338.930664	26905.437500
1337.878906	27094.630859
1336.826172	27193.470703
1335.773438	27408.646484
1334.720703	27426.638672
1333.667969	27449.369141
1332.614258	27431.738281
1331.561523	27212.398438
1330.507813	26902.988281
1329.453125	26503.566406
1328.399414	26550.173828
1327.344727	25577.181641
1326.290039	25519.654297
1325.235352	24950.203125
1324.180664	24973.392578
1323.125000	24676.742188
1322.070313	24482.064453
1321.014648	24566.904297
1319.958008	23976.933594
1318.902344	23735.177734
1317.845703	23304.191406
1316.789063	22915.974609
1315.732422	22719.537109
1314.675781	22319.777344
1313.618164	21693.179688
1312.560547	21508.939453
1311.502930	20587.318359
1310.445313	20372.662109
1309.386719	19756.447266
1308.329102	19343.634766
1307.270508	18862.505859
1306.210938	18119.490234
1305.152344	17820.589844
1304.092773	17646.904297
1303.033203	17496.884766
1301.973633	17269.076172
1300.914063	16899.841797
1299.853516	16870.337891
1298.792969	16668.736328
1297.732422	16764.222656
1296.671875	16470.814453
1295.611328	16311.831055
1294.549805	16466.220703
1293.488281	16481.585938
1292.426758	16426.304688
1291.364258	16436.962891
1290.302734	16294.624023
1289.240234	16401.783203
1288.177734	16224.219727
1287.114258	16110.238281
1286.051758	16064.504883
1284.988281	16032.895508
1283.924805	16083.574219
1282.861328	16028.469727
1281.796875	16032.130859
1280.732422	16298.902344
1279.667969	15945.496094
1278.603516	16425.859375
1277.539063	16304.998047
1276.473633	16634.855469
1275.408203	16619.603516
1274.342773	16759.207031
1273.277344	16736.894531
1272.210938	17080.449219
1271.145508	16821.253906
1270.079102	16740.332031
1269.011719	16898.507813
1267.945313	16845.718750
1266.877930	16874.949219
1265.810547	16611.382813
1264.743164	16432.230469
1263.674805	16133.746094
1262.607422	15954.767578
1261.539063	15675.232422
1260.470703	15473.026367
1259.401367	15270.905273
1258.333008	15384.606445
1257.263672	14906.667969
1256.194336	14901.167969
1255.125000	14729.719727
1254.054688	14656.489258
1252.985352	14419.746094
1251.915039	14227.483398
1250.843750	14245.481445
1249.773438	14130.383789
1248.702148	13924.295898
1247.630859	13872.327148
1246.559570	14032.713867
1245.488281	13658.809570
1244.416016	13812.174805
1243.343750	13760.269531
1242.271484	13741.024414
1241.199219	13560.958008
1240.125977	13560.404297
1239.053711	13534.220703
1237.980469	13424.190430
1236.906250	13379.415039
1235.833008	13527.912109
1234.758789	13487.787109
1233.684570	13608.267578
1232.610352	13284.258789
1231.536133	13516.396484
1230.460938	13336.749023
1229.385742	13317.630859
1228.310547	13389.190430
1227.235352	13435.150391
1226.159180	13355.597656
1225.083008	13619.945313
1224.006836	13387.071289
1222.930664	13553.754883
1221.853516	13615.878906
1220.777344	13592.082031
1219.700195	13816.635742
1218.622070	13760.317383
1217.544922	13915.138672
1216.466797	13928.405273
1215.388672	14078.484375
1214.310547	13959.554688
1213.232422	13933.393555
1212.153320	14199.246094
1211.074219	14441.814453
1209.995117	14702.809570
1208.916016	14505.124023
1207.835938	14682.633789
1206.755859	14362.338867
1205.675781	14620.808594
1204.595703	14379.337891
1203.514648	14313.796875
1202.434570	14477.274414
1201.353516	14321.549805
1200.271484	14353.166016
1199.190430	14241.451172
1198.108398	14159.827148
1197.026367	14078.236328
1195.944336	13798.014648
1194.862305	13908.228516
1193.779297	13459.597656
1192.696289	13636.784180
1191.613281	13421.518555
1190.530273	13321.722656
1189.446289	13152.756836
1188.362305	13053.059570
1187.278320	13119.444336
1186.194336	13072.824219
1185.109375	12751.914063
1184.024414	12629.337891
1182.939453	12739.530273
1181.854492	12444.235352
1180.768555	12526.780273
1179.683594	12349.089844
1178.597656	12162.266602
1177.510742	12442.758789
1176.424805	12520.626953
1175.337891	12191.242188
1174.250977	12266.828125
1173.164063	12330.882813
1172.077148	12273.051758
1170.989258	12314.088867
1169.901367	12182.742188
1168.813477	12442.060547
1167.724609	12478.436523
1166.636719	12459.675781
1165.547852	12456.994141
1164.458984	12433.652344
1163.369141	12458.518555
1162.280273	12664.658203
1161.190430	12629.811523
1160.100586	12686.729492
1159.010742	12686.290039
1157.919922	12779.852539
1156.829102	12838.990234
1155.738281	12689.549805
1154.647461	12897.612305
1153.555664	12645.135742
1152.464844	12731.730469
1151.373047	12804.548828
1150.280273	12849.861328
1149.188477	12611.341797
1148.095703	12839.741211
1147.002930	12544.128906
1145.910156	12484.237305
1144.817383	12495.263672
1143.723633	12510.855469
1142.629883	12375.575195
1141.536133	12512.307617
1140.441406	12290.257813
1139.347656	12394.967773
1138.252930	12236.985352
1137.158203	12280.007813
1136.062500	12202.017578
1134.967773	12078.412109
1133.872070	12338.217773
1132.776367	12098.283203
1131.679688	12159.530273
1130.583984	12140.936523
1129.487305	12124.628906
1128.390625	12240.535156
1127.292969	12486.288086
1126.196289	12260.296875
1125.098633	12378.373047
1124.000977	12334.697266
1122.903320	12199.959961
1121.804688	12299.757813
1120.706055	12342.611328
1119.607422	12405.923828
1118.508789	12243.984375
1117.409180	12241.329102
1116.310547	12293.250000
1115.210938	12106.428711
1114.110352	12099.255859
1113.010742	12096.629883
1111.910156	12103.091797
1110.809570	11796.079102
1109.708984	12088.751953
1108.607422	11965.788086
1107.506836	12010.859375
1106.405273	11894.771484
1105.303711	11869.496094
1104.201172	11680.893555
1103.098633	11510.515625
1101.996094	11564.703125
1100.893555	11818.369141
1099.791016	11729.667969
1098.687500	11786.035156
1097.583984	11665.658203
1096.480469	11681.240234
1095.376953	11538.291016
1094.272461	11723.702148
1093.167969	11764.158203
1092.063477	11793.280273
1090.958008	11772.610352
1089.853516	11964.591797
1088.748047	11919.012695
1087.642578	11997.817383
1086.536133	12115.017578
1085.430664	12356.477539
1084.324219	12446.430664
1083.217773	12667.376953
1082.110352	12734.633789
1081.003906	12964.452148
1079.896484	13081.282227
1078.789063	13114.542969
1077.680664	13104.909180
1076.573242	13153.941406
1075.464844	13239.042969
1074.356445	13321.851563
1073.247070	13057.387695
1072.138672	13054.534180
1071.029297	13071.964844
1069.919922	13057.840820
1068.809570	13054.985352
1067.700195	12781.853516
1066.589844	12621.430664
1065.479492	12546.627930
1064.368164	12444.845703
1063.257813	12475.876953
1062.146484	12086.172852
1061.035156	12326.457031
1059.922852	11930.208008
1058.811523	11977.058594
1057.699219	11814.835938
1056.586914	11663.919922
1055.473633	11879.312500
1054.361328	11777.868164
1053.248047	11595.613281
1052.134766	11727.795898
1051.021484	11794.816406
1049.907227	11511.675781
1048.792969	11574.224609
1047.678711	11499.895508
1046.564453	11522.043945
1045.449219	11593.516602
1044.333984	11635.810547
1043.218750	11633.255859
1042.103516	11536.579102
1040.987305	11769.296875
1039.871094	11477.750977
1038.754883	11640.953125
1037.638672	11616.003906
1036.521484	11720.899414
1035.404297	11814.558594
1034.287109	11653.094727
1033.169922	11583.420898
1032.051758	11791.108398
1030.933594	11889.136719
1029.815430	11915.583008
1028.697266	11924.135742
1027.578125	11870.115234
1026.458984	11737.924805
1025.339844	11862.654297
1024.220703	11817.612305
1023.100586	11897.616211
1021.980469	11899.458984
1020.860352	11698.220703
1019.740234	11858.515625
1018.619141	11764.444336
1017.498047	11975.945313
1016.376953	11866.280273
1015.255859	11647.432617
1014.133789	11745.153320
1013.011719	11796.038086
1011.889648	11795.663086
1010.767578	12055.869141
1009.644531	11743.694336
1008.521484	11968.175781
1007.398438	11874.277344
1006.274414	11971.790039
1005.151367	11804.512695
1004.027344	11772.989258
1002.902344	11906.036133
1001.778320	11970.102539
1000.653320	11980.791992
999.528320	11864.805664
998.403320	11808.858398
997.278320	11844.007813
996.152344	11992.402344
995.026367	12014.171875
993.900391	12122.503906
992.773438	12275.173828
991.646484	12261.362305
990.519531	12081.177734
989.392578	12191.612305
988.265625	12162.302734
987.137695	12356.910156
986.009766	12336.440430
984.881836	12486.602539
983.752930	12388.572266
982.624023	12328.236328
981.495117	12321.073242
980.366211	12207.643555
979.236328	12266.911133
978.106445	12107.069336
976.976563	12172.967773
975.846680	12004.368164
974.715820	11789.400391
973.585938	11711.608398
972.454102	11720.059570
971.323242	11735.135742
970.191406	11522.624023
969.060547	11791.773438
967.927734	11623.512695
966.795898	11793.156250
965.663086	11669.118164
964.530273	11977.718750
963.397461	12127.307617
962.264648	11979.007813
961.130859	12236.601563
959.997070	12117.008789
958.863281	12445.001953
957.729492	12387.128906
956.594727	12421.832031
955.459961	12245.017578
954.325195	12207.047852
953.189453	12228.551758
952.053711	12047.492188
950.917969	12084.428711
949.782227	11767.037109
948.646484	11683.006836
947.509766	11752.991211
946.373047	11708.584961
945.235352	11633.416016
944.098633	11749.524414
942.960938	11524.930664
941.823242	11533.344727
940.685547	11748.249023
939.546875	11679.738281
938.408203	11890.120117
937.269531	11753.552734
936.129883	11900.172852
934.991211	11816.324219
933.851563	11980.414063
932.711914	12025.989258
931.571289	11915.852539
930.431641	11992.112305
929.291016	12197.656250
928.149414	12140.144531
927.008789	11977.495117
925.867188	11924.436523
924.725586	12011.553711
923.583984	11989.161133
922.441406	12047.766602
921.299805	11843.734375
920.157227	11550.087891
919.013672	11584.687500
917.871094	11505.548828
916.727539	11373.969727
915.583984	11163.753906
914.439453	11137.211914
913.295898	11147.825195
912.151367	11081.974609
911.006836	11177.770508
909.861328	11179.630859
908.716797	11177.123047
907.571289	10962.909180
906.424805	11126.285156
905.279297	11021.253906
904.132813	11293.595703
902.986328	11088.265625
901.839844	11157.719727
900.692383	11089.825195
899.545898	11080.796875
898.398438	11065.236328
897.250000	11025.721680
896.102539	11038.487305
894.954102	11096.966797
893.805664	11033.525391
892.656250	11098.505859
891.507813	11189.564453
890.358398	11073.937500
889.208984	11167.133789
888.058594	11238.544922
886.908203	11038.206055
885.758789	11074.839844
884.607422	11028.891602
883.457031	10967.757813
882.305664	11082.563477
881.154297	10915.049805
880.002930	10936.470703
878.850586	10986.093750
877.698242	10998.806641
876.545898	11093.948242
875.393555	10911.433594
874.240234	10826.577148
873.086914	10819.799805
871.933594	10854.205078
870.780273	10869.091797
869.625977	10881.804688
868.471680	10771.054688
867.317383	10731.812500
866.162109	10870.110352
865.007813	10807.052734
863.852539	10655.299805
862.696289	10804.335938
861.541016	10639.672852
860.384766	10615.645508
859.228516	10747.291016
858.072266	10597.879883
856.915039	10770.527344
855.757813	10835.070313
854.600586	10785.099609
853.442383	10812.895508
852.285156	10888.176758
851.126953	10706.551758
849.968750	10803.402344
848.809570	10621.876953
847.650391	10854.599609
846.491211	10722.745117
845.332031	10761.285156
844.171875	10689.868164
843.012695	10499.949219
841.851563	10693.646484
840.691406	10540.431641
839.530273	10626.345703
838.369141	10707.914063
837.208008	10729.167969
836.046875	10687.996094
834.884766	10900.748047
833.722656	10751.991211
832.560547	10691.483398
831.397461	10600.897461
830.234375	10594.193359
829.071289	10628.329102
827.908203	10651.703125
826.744141	10563.353516
825.580078	10406.311523
824.416016	10756.116211
823.251953	10646.331055
822.086914	10643.914063
820.921875	10723.041992
819.756836	10611.190430
818.590820	10696.722656
817.425781	10666.415039
816.259766	10601.817383
815.092773	10680.859375
813.926758	10719.148438
812.759766	10830.264648
811.592773	10765.684570
810.424805	10459.141602
809.257813	10677.289063
808.089844	10721.953125
806.920898	10721.654297
805.752930	10627.213867
804.583984	10629.074219
803.415039	10592.437500
802.246094	10658.446289
801.076172	10630.369141
799.906250	10670.691406
798.736328	10608.435547
797.566406	10588.930664
796.395508	10610.011719
795.224609	10688.732422
794.053711	10921.113281
792.881836	10984.786133
791.710938	11182.852539
790.538086	11340.296875
789.366211	11273.729492
788.194336	11590.999023
787.021484	11581.960938
785.848633	11645.390625
784.674805	11566.025391
783.500977	11516.520508
782.327148	11341.375977
781.153320	11458.032227
779.979492	11157.376953
778.804688	11318.715820
777.629883	11133.132813
776.454102	11051.877930
775.279297	10896.215820
774.103516	10974.532227
772.927734	11025.174805
771.750977	11135.306641
770.575195	11028.638672
769.398438	11151.463867
768.220703	11276.356445
767.043945	11488.254883
765.866211	11485.629883
764.688477	11542.435547
763.510742	11718.050781
762.332031	11846.909180
761.153320	12185.696289
759.974609	12666.409180
758.794922	13015.453125
757.616211	13648.367188
756.436523	14552.243164
755.255859	15502.315430
754.076172	16763.326172
752.895508	18252.468750
751.714844	20117.792969
750.533203	22177.000000
749.352539	24207.751953
748.170898	26144.478516
746.988281	28198.771484
745.806641	28902.884766
744.624023	29579.185547
743.441406	29849.318359
742.258789	29523.365234
741.075195	29470.117188
739.891602	29689.386719
738.708008	30199.994141
737.523438	30934.173828
736.339844	31902.326172
735.155273	32146.152344
733.969727	31997.414063
732.785156	31582.947266
731.599609	30303.986328
730.414063	28085.216797
729.227539	25924.380859
728.041992	23199.716797
726.855469	20710.181641
725.667969	18801.093750
724.481445	16996.078125
723.293945	15785.668945
722.106445	15022.098633
720.918945	13911.612305
719.730469	13317.152344
718.541992	12998.543945
717.353516	12713.732422
716.164063	12363.866211
714.975586	12140.292969
713.786133	11670.918945
712.595703	11846.843750
711.406250	11346.239258
710.215820	11368.833984
709.025391	11290.627930
707.833984	11193.563477
706.642578	11214.077148
705.451172	11148.547852
704.259766	11225.703125
703.068359	11267.166016
701.875977	11220.539063
700.683594	11383.575195
699.490234	11573.783203
698.297852	12021.643555
697.104492	12270.274414
695.910156	12640.269531
694.716797	13273.940430
693.522461	13576.540039
692.328125	13650.857422
691.132813	13687.472656
689.938477	13535.783203
688.743164	13417.627930
687.547852	13105.051758
686.351563	12869.972656
685.155273	12720.697266
683.958984	12310.280273
682.762695	12075.542969
681.565430	11989.211914
680.368164	11842.361328
679.170898	12015.002930
677.973633	11889.084961
676.775391	11681.838867
675.577148	11610.297852
674.378906	11620.136719
673.179688	11408.922852
671.980469	11437.564453
670.781250	11495.374023
669.581055	11451.044922
668.381836	11381.734375
667.181641	11168.731445
665.980469	11207.803711
664.780273	11007.429688
663.579102	11129.780273
662.377930	11312.422852
661.175781	11103.837891
659.973633	11061.754883
658.771484	11161.100586
657.569336	11208.422852
656.367188	11528.020508
655.164063	11504.578125
653.960938	11720.075195
652.756836	11829.537109
651.552734	12194.380859
650.348633	12220.631836
649.144531	12317.444336
647.939453	12414.211914
646.735352	12788.954102
645.529297	12611.757813
644.324219	12830.743164
643.118164	13045.479492
641.912109	12596.798828
640.706055	12778.330078
639.499023	12503.956055
638.292969	12182.066406
637.084961	12094.341797
635.877930	12029.431641
634.669922	11740.991211
633.461914	11626.523438
632.253906	11512.106445
631.044922	11565.295898
629.836914	11285.499023
628.626953	11593.028320
627.417969	11292.681641
626.208008	11593.866211
624.998047	11370.104492
623.788086	11381.933594
622.577148	11542.451172
621.366211	11182.582031
620.155273	11157.288086
618.944336	11214.555664
617.732422	11036.580078
616.520508	10980.392578
615.308594	10773.678711
614.095703	10993.866211
612.882813	10869.699219
611.669922	10753.833008
610.457031	10570.025391
609.243164	10619.077148
608.029297	10670.165039
606.815430	10552.389648
605.600586	10652.872070
604.385742	10539.270508
603.170898	10450.411133
601.955078	10596.101563
600.740234	10523.722656
599.524414	10710.450195
598.307617	10537.348633
597.091797	10629.446289
595.875000	10715.335938
594.658203	10521.809570
593.440430	10572.768555
592.222656	10572.372070
591.004883	10545.289063
589.787109	10499.746094
588.568359	10454.223633
587.349609	10367.693359
586.130859	10236.083008
584.912109	10225.508789
583.692383	10284.637695
582.472656	10280.204102
581.251953	10261.428711
580.032227	10338.942383
578.811523	10582.312500
577.589844	10487.716797
576.369141	10700.231445
575.147461	10724.356445
573.925781	10944.901367
572.703125	11009.870117
571.481445	11393.862305
570.258789	11540.485352
569.035156	11586.871094
567.812500	11827.393555
566.588867	11900.252930
565.365234	12073.176758
564.140625	12440.043945
562.916992	12222.759766
561.692383	12517.971680
560.466797	12559.967773
559.242188	12381.573242
558.016602	12040.061523
556.791016	12020.952148
555.564453	11883.584961
554.337891	11520.000000
553.111328	11195.306641
551.884766	11072.488281
550.657227	10839.719727
549.429688	10700.746094
548.202148	10659.575195
546.974609	10630.636719
545.746094	10440.924805
544.517578	10513.789063
543.288086	10405.563477
542.058594	10449.926758
540.829102	10549.170898
539.599609	10538.590820
538.370117	10395.906250
537.139648	10430.068359
535.909180	10399.206055
534.677734	10339.923828
533.446289	10386.256836
532.214844	10365.575195
530.983398	10243.421875
529.750977	10360.762695
528.519531	10169.691406
527.286133	10155.161133
526.053711	10229.857422
524.820313	10126.119141
523.586914	10253.482422
522.353516	10172.075195
521.119141	10194.023438
519.884766	10230.138672
518.650391	10274.335938
517.415039	10093.800781
516.179688	10180.511719
514.944336	10016.268555
513.708984	9965.390625
