#Wave		#Intensity
2109.224609	9482.195313
2107.712891	9492.119141
2106.201172	9430.536133
2104.687500	9491.321289
2103.175781	9426.459961
2101.662109	9533.490234
2100.150391	9551.256836
2098.636719	9422.002930
2097.123047	9348.956055
2095.607422	9441.050781
2094.093750	9369.681641
2092.578125	9483.187500
2091.064453	9255.085938
2089.548828	9264.638672
2088.033203	9175.226563
2086.517578	9321.656250
2085.000000	9418.564453
2083.484375	9368.736328
2081.966797	9373.309570
2080.449219	9216.420898
2078.931641	9244.086914
2077.414063	9359.022461
2075.894531	9177.541016
2074.376953	9170.628906
2072.857422	9158.781250
2071.337891	9127.194336
2069.818359	9314.416016
2068.298828	9225.243164
2066.777344	9193.662109
2065.257813	9065.097656
2063.736328	9169.989258
2062.214844	9149.943359
2060.693359	9225.198242
2059.171875	9075.383789
2057.648438	9147.336914
2056.126953	9219.259766
2054.603516	9079.392578
2053.080078	9233.358398
2051.556641	9091.907227
2050.033203	9111.284180
2048.507813	9002.722656
2046.984375	9143.455078
2045.458984	9167.727539
2043.933594	9059.222656
2042.408203	9196.575195
2040.882813	9148.731445
2039.355469	8979.693359
2037.830078	8999.061523
2036.302734	8952.927734
2034.775391	9104.888672
2033.248047	9150.403320
2031.718750	8911.185547
2030.191406	9099.048828
2028.662109	9105.281250
2027.134766	9067.360352
2025.605469	8985.312500
2024.076172	8944.164063
2022.544922	8966.766602
2021.015625	9012.232422
2019.484375	8887.796875
2017.955078	8975.721680
2016.423828	8986.868164
2014.892578	8855.987305
2013.359375	9079.325195
2011.828125	8928.899414
2010.294922	8913.944336
2008.761719	8934.876953
2007.230469	8990.046875
2005.695313	9007.694336
2004.162109	9007.403320
2002.628906	9044.595703
2001.093750	9078.512695
1999.558594	9058.660156
1998.023438	8957.384766
1996.488281	9080.852539
1994.953125	8951.941406
1993.417969	9003.745117
1991.880859	9024.609375
1990.343750	9050.344727
1988.806641	8988.236328
1987.269531	8960.304688
1985.732422	9080.335938
1984.193359	8961.368164
1982.656250	8964.337891
1981.117188	8988.427734
1979.578125	8911.791016
1978.039063	8818.946289
1976.500000	8968.082031
1974.958984	8964.551758
1973.417969	9061.654297
1971.878906	8874.736328
1970.337891	8893.942383
1968.796875	8934.225586
1967.253906	8841.512695
1965.712891	9095.808594
1964.169922	8896.113281
1962.626953	8988.222656
1961.083984	8908.539063
1959.541016	8843.468750
1957.998047	8878.842773
1956.455078	8834.856445
1954.910156	8902.596680
1953.365234	8879.665039
1951.820313	8902.054688
1950.275391	8896.930664
1948.730469	8885.337891
1947.183594	8828.467773
1945.638672	8745.750977
1944.091797	8876.453125
1942.544922	8822.851563
1940.998047	8738.572266
1939.449219	8765.798828
1937.902344	8854.390625
1936.353516	8795.995117
1934.804688	8850.637695
1933.255859	8932.698242
1931.707031	8854.957031
1930.158203	8765.953125
1928.607422	8604.397461
1927.058594	8788.044922
1925.507813	8650.738281
1923.957031	8700.493164
1922.406250	8793.744141
1920.853516	8838.613281
1919.302734	8912.461914
1917.750000	8751.112305
1916.197266	8742.818359
1914.644531	8721.647461
1913.091797	8785.798828
1911.539063	8754.970703
1909.984375	8716.110352
1908.431641	8810.787109
1906.876953	8828.222656
1905.322266	8736.306641
1903.767578	8739.281250
1902.210938	8739.040039
1900.656250	8750.046875
1899.099609	8759.442383
1897.542969	8953.559570
1895.986328	8705.953125
1894.429688	8689.661133
1892.873047	8665.349609
1891.314453	8774.257813
1889.755859	8711.427734
1888.199219	8655.041016
1886.640625	8733.407227
1885.080078	8628.930664
1883.521484	8880.420898
1881.960938	8876.940430
1880.402344	8629.870117
1878.841797	8777.054688
1877.281250	8852.090820
1875.720703	8843.813477
1874.158203	8661.005859
1872.597656	8606.346680
1871.035156	8730.970703
1869.472656	8789.933594
1867.910156	8599.291992
1866.347656	8792.618164
1864.783203	8573.270508
1863.220703	8464.335938
1861.656250	8723.105469
1860.091797	8593.408203
1858.527344	8623.549805
1856.962891	8786.270508
1855.396484	8616.712891
1853.832031	8658.006836
1852.265625	8750.371094
1850.699219	8635.195313
1849.132813	8665.288086
1847.566406	8808.646484
1845.998047	8664.818359
1844.431641	8651.824219
1842.863281	8755.232422
1841.294922	8525.422852
1839.726563	8727.627930
1838.156250	8679.574219
1836.587891	8757.397461
1835.017578	8567.599609
1833.449219	8656.559570
1831.878906	8548.059570
1830.306641	8670.413086
1828.736328	8684.497070
1827.166016	8654.023438
1825.593750	8696.737305
1824.021484	8623.331055
1822.449219	8648.541992
1820.876953	8681.690430
1819.304688	8683.036133
1817.730469	8557.253906
1816.158203	8800.115234
1814.583984	8699.774414
1813.009766	8794.810547
1811.435547	8788.190430
1809.859375	8776.810547
1808.285156	8740.041016
1806.708984	8642.991211
1805.132813	8790.288086
1803.556641	8775.743164
1801.980469	8773.889648
1800.404297	8762.524414
1798.826172	8751.164063
1797.248047	8849.154297
1795.671875	8839.363281
1794.093750	8889.770508
1792.513672	8951.242188
1790.935547	8977.852539
1789.355469	8892.054688
1787.777344	8788.881836
1786.197266	8957.923828
1784.617188	8739.290039
1783.035156	8957.303711
1781.455078	8930.109375
1779.873047	8768.537109
1778.292969	8804.622070
1776.710938	8812.244141
1775.128906	8897.285156
1773.544922	8797.462891
1771.962891	8827.192383
1770.378906	8825.327148
1768.794922	8796.625000
1767.212891	8889.469727
1765.626953	8859.185547
1764.042969	8904.645508
1762.458984	8931.157227
1760.873047	8875.649414
1759.287109	8802.822266
1757.701172	8884.509766
1756.115234	8907.848633
1754.529297	8986.328125
1752.941406	8924.564453
1751.355469	9058.131836
1749.767578	8927.089844
1748.179688	8978.732422
1746.591797	8942.205078
1745.001953	8979.657227
1743.414063	9135.097656
1741.824219	9074.962891
1740.234375	9060.462891
1738.644531	9080.560547
1737.054688	9169.819336
1735.462891	9136.445313
1733.873047	9092.084961
1732.281250	9228.416016
1730.689453	9306.571289
1729.097656	9306.172852
1727.505859	9296.353516
1725.912109	9247.294922
1724.320313	9116.647461
1722.726563	9315.559570
1721.132813	9349.668945
1719.539063	9386.900391
1717.945313	9358.256836
1716.349609	9464.450195
1714.755859	9528.278320
1713.160156	9469.845703
1711.564453	9615.115234
1709.968750	9732.126953
1708.371094	9871.013672
1706.775391	9826.648438
1705.177734	9960.758789
1703.580078	9999.341797
1701.982422	10105.192383
1700.384766	10290.783203
1698.787109	10082.142578
1697.187500	10452.181641
1695.587891	10388.994141
1693.990234	10336.773438
1692.390625	10337.708984
1690.789063	10587.070313
1689.189453	10378.627930
1687.587891	10557.594727
1685.988281	10647.481445
1684.386719	10570.291016
1682.785156	10803.727539
1681.181641	10881.020508
1679.580078	11012.882813
1677.976563	11179.004883
1676.373047	11128.291016
1674.769531	11261.574219
1673.166016	11237.362305
1671.562500	11442.253906
1669.957031	11530.198242
1668.353516	11681.973633
1666.748047	11841.471680
1665.142578	11743.972656
1663.537109	11839.559570
1661.929688	12064.292969
1660.324219	12265.586914
1658.716797	12202.305664
1657.109375	12611.919922
1655.501953	12512.821289
1653.894531	12639.214844
1652.285156	12868.150391
1650.677734	13199.562500
1649.068359	13274.450195
1647.458984	13527.958984
1645.849609	13601.189453
1644.240234	13806.380859
1642.628906	13994.406250
1641.019531	14345.330078
1639.408203	14377.972656
1637.796875	14523.862305
1636.185547	14793.784180
1634.572266	15015.513672
1632.960938	15201.485352
1631.347656	15506.743164
1629.734375	15703.378906
1628.121094	15724.830078
1626.507813	16243.570313
1624.894531	16182.804688
1623.279297	16691.933594
1621.664063	17131.173828
1620.048828	17338.041016
1618.433594	17605.173828
1616.818359	17773.167969
1615.203125	17834.351563
1613.585938	18255.863281
1611.968750	18726.673828
1610.351563	18619.105469
1608.734375	18925.802734
1607.117188	19122.652344
1605.498047	19240.626953
1603.878906	19363.181641
1602.261719	19623.125000
1600.640625	19680.697266
1599.021484	19892.605469
1597.402344	19863.669922
1595.781250	20022.986328
1594.162109	20139.039063
1592.541016	20285.886719
1590.919922	20523.646484
1589.296875	20436.015625
1587.675781	20533.380859
1586.052734	20570.601563
1584.429688	20436.794922
1582.806641	20668.099609
1581.183594	20529.703125
1579.560547	20747.029297
1577.935547	20417.796875
1576.312500	20535.013672
1574.687500	20599.865234
1573.062500	20709.300781
1571.435547	20804.843750
1569.810547	21003.371094
1568.183594	21187.974609
1566.558594	21258.755859
1564.931641	21380.218750
1563.304688	21489.335938
1561.675781	21351.099609
1560.048828	21521.603516
1558.419922	21274.404297
1556.791016	21427.958984
1555.162109	21561.498047
1553.533203	21392.697266
1551.904297	21421.865234
1550.273438	21319.115234
1548.642578	21122.869141
1547.011719	21086.148438
1545.380859	21190.455078
1543.750000	21466.347656
1542.119141	21377.478516
1540.486328	21507.691406
1538.853516	21460.197266
1537.220703	21192.240234
1535.587891	20823.365234
1533.955078	20906.132813
1532.320313	20740.980469
1530.685547	21021.072266
1529.052734	20785.609375
1527.416016	20765.853516
1525.781250	20891.343750
1524.146484	21148.228516
1522.509766	21456.957031
1520.873047	21085.666016
1519.236328	20742.027344
1517.599609	20503.910156
1515.962891	20207.873047
1514.324219	19467.744141
1512.687500	19710.800781
1511.048828	19515.828125
1509.410156	19299.580078
1507.771484	19328.980469
1506.130859	19112.861328
1504.492188	19249.007813
1502.851563	19031.470703
1501.210938	19169.095703
1499.570313	18858.728516
1497.927734	18965.863281
1496.287109	18961.777344
1494.644531	18930.285156
1493.001953	18837.914063
1491.359375	18482.287109
1489.716797	18519.384766
1488.074219	18194.402344
1486.429688	17969.941406
1484.785156	17979.750000
1483.140625	17729.583984
1481.496094	17555.523438
1479.851563	17693.058594
1478.207031	17692.277344
1476.560547	17553.269531
1474.914063	17468.990234
1473.267578	17580.607422
1471.621094	17651.191406
1469.972656	17853.779297
1468.326172	17827.160156
1466.677734	17934.046875
1465.029297	18030.271484
1463.380859	18203.785156
1461.732422	18113.433594
1460.082031	17948.851563
1458.431641	18016.189453
1456.783203	17859.271484
1455.132813	17729.683594
1453.480469	17521.404297
1451.830078	17143.638672
1450.177734	17155.062500
1448.527344	16869.853516
1446.875000	16608.976563
1445.220703	16749.085938
1443.568359	16500.445313
1441.916016	16448.480469
1440.261719	16435.841797
1438.607422	16167.777344
1436.953125	16128.002930
1435.298828	15941.700195
1433.642578	15611.983398
1431.988281	15220.493164
1430.332031	15029.974609
1428.675781	14874.254883
1427.019531	14525.431641
1425.361328	14422.695313
1423.705078	14294.357422
1422.046875	14157.024414
1420.388672	14166.009766
1418.730469	13979.014648
1417.072266	14024.204102
1415.412109	13798.141602
1413.753906	13950.310547
1412.093750	13965.348633
1410.433594	13682.219727
1408.773438	13951.741211
1407.111328	14266.300781
1405.451172	14416.691406
1403.789063	14743.045898
1402.126953	15182.074219
1400.464844	15676.552734
1398.802734	15937.762695
1397.138672	16525.058594
1395.474609	16697.296875
1393.812500	16755.259766
1392.146484	16858.263672
1390.482422	16537.679688
1388.818359	16573.111328
1387.152344	16543.972656
1385.486328	16436.794922
1383.820313	16236.625000
1382.154297	16341.098633
1380.488281	16349.528320
1378.820313	16179.497070
1377.154297	16213.442383
1375.486328	16304.333008
1373.818359	16350.223633
1372.148438	16367.623047
1370.480469	16311.613281
1368.810547	16281.085938
1367.140625	16096.344727
1365.470703	15965.575195
1363.800781	16204.541992
1362.130859	16085.773438
1360.458984	16348.541992
1358.787109	16724.867188
1357.115234	16782.511719
1355.443359	16979.167969
1353.771484	17041.212891
1352.097656	17239.216797
1350.423828	17223.484375
1348.751953	17564.755859
1347.076172	17799.845703
1345.402344	18458.863281
1343.728516	19122.068359
1342.052734	19543.207031
1340.376953	20076.068359
1338.701172	20443.105469
1337.025391	21044.136719
1335.347656	21203.533203
1333.671875	21525.351563
1331.994141	21438.644531
1330.316406	21351.972656
1328.638672	21105.927734
1326.960938	20986.595703
1325.281250	20766.050781
1323.601563	20499.449219
1321.921875	20124.302734
1320.242188	20054.390625
1318.562500	19637.845703
1316.880859	19105.455078
1315.201172	18809.759766
1313.519531	18465.125000
1311.837891	17940.773438
1310.154297	17904.121094
1308.472656	17362.289063
1306.789063	17144.542969
1305.105469	16622.421875
1303.421875	16317.322266
1301.738281	16098.459961
1300.054688	15618.469727
1298.369141	15459.210938
1296.683594	15285.185547
1294.998047	15281.807617
1293.312500	14903.252930
1291.626953	15052.664063
1289.939453	14938.166016
1288.253906	14782.223633
1286.566406	14558.194336
1284.878906	14443.877930
1283.189453	14440.680664
1281.501953	14376.778320
1279.812500	14348.429688
1278.123047	14324.532227
1276.433594	14023.952148
1274.744141	14017.885742
1273.052734	14065.064453
1271.363281	14245.297852
1269.671875	13930.213867
1267.980469	14011.369141
1266.289063	13938.810547
1264.595703	13607.748047
1262.904297	13745.043945
1261.210938	13397.925781
1259.517578	13604.592773
1257.824219	13474.632813
1256.128906	13362.437500
1254.435547	13276.846680
1252.740234	13517.277344
1251.044922	13344.680664
1249.349609	13406.585938
1247.652344	13284.205078
1245.957031	13369.673828
1244.259766	13238.512695
1242.562500	13248.823242
1240.865234	13148.671875
1239.167969	12921.936523
1237.468750	12618.751953
1235.769531	12560.013672
1234.072266	12411.542969
1232.371094	12414.661133
1230.671875	12476.607422
1228.972656	12701.744141
1227.271484	12421.057617
1225.570313	12428.575195
1223.869141	12540.419922
1222.167969	12293.744141
1220.464844	12327.719727
1218.763672	12282.379883
1217.060547	11959.579102
1215.357422	12068.461914
1213.654297	11880.860352
1211.949219	11882.605469
1210.246094	11610.049805
1208.541016	11711.576172
1206.835938	11708.956055
1205.130859	11531.899414
1203.423828	11681.733398
1201.718750	11673.257813
1200.011719	11692.617188
1198.304688	11758.832031
1196.597656	11662.488281
1194.888672	11826.758789
1193.181641	11632.381836
1191.472656	11686.839844
1189.763672	11757.365234
1188.054688	11798.605469
1186.343750	11806.194336
1184.634766	11721.677734
1182.923828	11761.432617
1181.212891	11780.711914
1179.501953	11718.167969
1177.791016	11728.681641
1176.078125	11813.664063
1174.365234	11898.606445
1172.652344	11803.975586
1170.939453	11820.292969
1169.226563	11762.194336
1167.511719	11553.880859
1165.798828	11641.696289
1164.083984	11539.934570
1162.369141	11433.843750
1160.652344	11489.562500
1158.937500	11281.538086
1157.220703	11257.147461
1155.503906	11314.321289
1153.787109	11189.466797
1152.070313	11249.539063
1150.351563	11040.341797
1148.632813	11021.846680
1146.916016	10952.444336
1145.195313	10922.340820
1143.476563	11023.113281
1141.757813	10917.411133
1140.037109	10778.328125
1138.316406	10601.526367
1136.595703	10517.779297
1134.875000	10320.781250
1133.152344	10091.924805
1131.429688	10047.542969
1129.708984	9884.164063
1127.984375	9635.243164
1126.261719	9538.763672
1124.539063	9493.092773
1122.814453	9212.524414
1121.089844	9116.203125
1119.365234	9154.723633
1117.640625	9083.092773
1115.914063	8994.108398
1114.187500	9026.833008
1112.462891	8858.251953
1110.734375	8983.651367
1109.007813	8739.885742
1107.281250	8947.740234
1105.552734	8704.090820
1103.824219	8608.093750
1102.095703	8520.816406
1100.367188	8304.898438
1098.636719	8303.012695
1096.908203	8279.449219
1095.177734	8107.076172
1093.447266	8165.904297
1091.714844	8291.137695
1089.984375	8166.524414
1088.251953	8414.400391
1086.519531	8275.381836
1084.787109	8377.386719
1083.054688	8438.953125
1081.320313	8499.048828
1079.585938	8520.184570
1077.851563	8425.983398
1076.117188	8475.949219
1074.382813	8486.987305
1072.648438	8493.697266
1070.912109	8488.880859
1069.175781	8484.066406
1067.439453	8377.041016
1065.701172	8422.626953
1063.964844	8117.087891
1062.226563	8128.183594
1060.488281	8084.618164
1058.750000	8010.875000
1057.011719	8021.984375
1055.271484	8037.400391
1053.531250	8075.799805
1051.791016	8062.461426
1050.050781	8006.039063
1048.310547	7959.693359
1046.568359	8161.737305
1044.826172	8413.924805
1043.083984	8447.875977
1041.341797	8438.769531
1039.599609	8411.020508
1037.855469	8234.144531
1036.113281	8144.804199
1034.369141	7979.535645
1032.623047	8106.681641
1030.878906	8004.534668
1029.132813	7925.352051
1027.386719	7791.787109
1025.640625	7847.269531
1023.894531	7736.684082
1022.148438	7710.581543
1020.400391	7814.687500
1018.652344	7950.213867
1016.904297	7791.080078
1015.156250	7754.977539
1013.406250	7843.250488
1011.658203	7838.591309
1009.908203	7929.660645
1008.158203	7809.278320
1006.408203	7891.742188
1004.656250	7882.789063
1002.904297	7895.250977
1001.152344	7860.611816
999.400391	7808.865723
997.648438	8050.995605
995.896484	7873.727539
994.142578	7916.115234
992.388672	7981.290527
990.634766	8015.081543
988.878906	8014.660645
987.125000	8226.489258
985.369141	8079.328125
983.613281	8094.552246
981.857422	8131.121094
980.099609	7975.541992
978.343750	7896.868164
976.585938	7825.342773
974.828125	7823.537109
973.070313	7828.840820
971.310547	7755.956543
969.552734	7731.426270
967.792969	7678.489258
966.033203	7777.575195
964.273438	7707.607422
962.511719	7876.214844
960.750000	7973.765137
958.990234	8150.747070
957.226563	8050.957031
955.464844	7993.770020
953.703125	7946.536133
951.939453	7754.694336
950.175781	7747.229004
948.412109	7636.305664
946.648438	7403.574219
944.882813	7488.273926
943.117188	7453.964844
941.351563	7555.603516
939.585938	7498.643066
937.820313	7481.336426
936.052734	7524.881836
934.285156	7340.646484
932.517578	7566.650879
930.750000	7525.303711
928.982422	7769.536621
927.212891	7632.053223
925.443359	7724.953613
923.673828	7872.905273
921.904297	7799.046875
920.132813	7783.115234
918.361328	7575.198730
916.591797	7591.786621
914.818359	7700.083984
913.046875	7521.954590
911.275391	7634.447266
909.501953	7388.731445
907.728516	7403.929688
905.955078	7249.991211
904.179688	7293.395020
902.406250	7362.135254
900.630859	7361.830078
898.855469	7399.542969
897.080078	7278.159668
895.302734	7403.134277
893.525391	7322.611328
891.750000	7417.973633
889.970703	7307.947754
888.193359	7133.290527
886.416016	7169.584473
884.636719	7129.964844
882.857422	7003.244141
881.078125	7012.848633
879.296875	7098.291016
877.517578	7082.592773
875.736328	6925.114258
873.955078	6976.831055
872.173828	6837.690430
870.390625	6967.961426
868.609375	7011.214844
866.826172	6921.238281
865.042969	7038.779785
863.259766	6853.532715
861.474609	6944.410645
859.689453	6914.769531
857.904297	6774.497070
856.119141	6754.709961
854.333984	6832.923828
852.546875	6835.523926
850.761719	6797.543945
848.974609	6812.739746
847.185547	6781.774414
845.398438	6732.645508
843.609375	6788.384277
841.822266	6750.456055
840.031250	6806.163086
838.242188	6886.988770
836.453125	7022.244141
834.662109	6945.197754
832.871094	7164.133301
831.080078	7180.596680
829.289063	7111.937012
827.496094	7103.293945
825.703125	7024.920410
823.910156	7038.609863
822.117188	6886.404785
820.324219	6876.426270
818.529297	6911.038574
816.734375	7018.071777
814.939453	6985.784180
813.144531	6978.573730
811.347656	6882.274902
809.550781	6890.399414
807.755859	6819.210449
805.957031	6796.741211
804.160156	6626.864258
802.361328	6768.518066
800.564453	6753.025391
798.765625	6800.078125
796.964844	6749.848145
795.166016	6784.376465
793.365234	6828.609375
791.564453	6890.870605
789.763672	7022.507813
787.962891	6968.117676
786.160156	7058.049316
784.359375	6992.578613
782.556641	6900.788086
780.751953	6835.383789
778.949219	6740.899902
777.144531	6779.500000
775.339844	6752.962891
773.535156	6751.370605
771.730469	6645.914063
769.925781	6791.106445
768.119141	6753.515137
766.312500	6713.173340
764.505859	6776.615723
762.697266	6917.488281
760.890625	6964.256836
759.082031	7069.070313
757.273438	7224.976563
755.464844	7512.090332
753.654297	7817.028809
751.845703	8265.473633
750.035156	8795.181641
748.224609	9541.393555
746.412109	10454.265625
744.601563	11432.944336
742.789063	11747.556641
740.976563	12536.499023
739.164063	13849.080078
737.349609	15854.500977
735.537109	18255.929688
733.722656	19705.400391
731.908203	19981.783203
730.091797	18664.441406
728.277344	16206.169922
726.460938	13404.887695
724.644531	11218.791016
722.828125	9595.154297
721.009766	8671.151367
719.193359	8050.170898
717.375000	7489.986816
715.556641	7265.503906
713.736328	7101.601563
711.917969	7000.983887
710.097656	7050.153809
708.277344	7003.158691
706.457031	6824.367188
704.636719	6715.671387
702.814453	6756.625000
700.992188	6875.770020
699.169922	6758.907227
697.347656	6857.421875
695.523438	7054.612793
693.699219	7210.584473
691.875000	7337.700684
690.050781	7292.112793
688.226563	7202.710938
686.400391	7165.392578
684.574219	7310.196289
682.748047	7044.265625
680.921875	6875.628418
679.095703	6890.414063
677.267578	6843.635742
675.439453	6959.621582
673.611328	6815.772949
671.781250	6790.915039
669.953125	6748.302734
668.123047	6742.599609
666.292969	6851.638672
664.460938	6774.899902
662.630859	6838.823242
660.798828	6887.701172
658.966797	6962.483398
657.134766	6948.547852
655.302734	6871.874023
653.468750	6924.786133
651.634766	7006.303223
649.800781	7040.074219
647.966797	7278.235352
646.130859	7271.053223
644.294922	7318.355957
642.458984	7218.568359
640.623047	7121.550293
638.787109	7079.021484
636.949219	7077.335449
635.111328	7072.928223
633.273438	6905.309082
631.435547	6751.367188
629.595703	6798.698730
627.757813	6862.317383
625.917969	6766.923340
624.076172	6710.970215
622.236328	6695.788574
620.394531	6620.868652
618.552734	6642.367676
616.710938	6537.636230
614.869141	6389.534668
613.025391	6267.277344
611.183594	6310.537598
609.339844	6253.439941
607.494141	6196.369141
605.650391	6118.996094
603.804688	6144.634766
601.958984	6135.040527
600.113281	6083.467773
598.267578	6094.201172
596.419922	6198.330566
594.572266	6034.452637
592.724609	6028.952637
590.876953	6131.668945
589.027344	6030.130859
587.179688	6042.210938
585.330078	5969.127441
583.480469	6024.459961
581.628906	5982.489258
579.779297	6001.320801
577.927734	6090.364746
576.076172	6040.306152
574.222656	6200.834961
572.371094	6216.895996
570.517578	6272.073730
568.664063	6408.152344
566.810547	6434.938477
564.955078	6477.889160
563.101563	6468.253906
561.246094	6501.742676
559.390625	6496.146484
557.533203	6382.803223
555.677734	6299.137695
553.820313	6420.137695
551.962891	6271.898926
550.105469	6158.715820
548.246094	6111.503906
546.386719	6095.248047
544.527344	6035.971191
542.667969	6111.151855
540.808594	5904.062500
538.947266	5848.903809
537.085938	5740.038086
535.224609	5895.796387
533.363281	5870.216797
531.500000	5710.413086
529.638672	5817.751953
527.775391	5734.514648
525.910156	5755.945801
524.046875	5908.791992
522.181641	6199.662598
520.316406	6883.141602
518.451172	6549.145020
516.585938	5960.747070
514.718750	5668.653809
512.851563	5581.590820
510.984375	5458.420410
509.117188	5466.482910
507.250000	5403.617188
505.380859	5562.867676
503.511719	5516.058594
501.642578	5548.168457
499.771484	5387.747070
497.902344	5385.120117
496.031250	5399.865234
494.160156	5473.385254
492.287109	5421.320313
490.416016	5469.427734
488.542969	5425.397949
486.669922	5417.424805
484.796875	5406.786621
482.921875	5441.509766
481.046875	5448.208496
479.171875	5597.576172
477.296875	5497.587891
475.421875	5522.925781
473.544922	5313.742676
471.667969	5277.834473
469.791016	5188.671387
467.914063	5261.990723
466.035156	5301.995605
464.156250	5239.506348
462.277344	5251.555664
460.398438	5259.608887
458.519531	5226.431152
456.638672	5141.416016
454.757813	5261.145020
452.876953	5245.266113
450.994141	5297.153320
449.113281	5217.514648
447.230469	5388.900391
445.347656	5212.358887
443.462891	5264.202637
441.580078	5228.438477
439.695313	5300.153809
437.810547	5241.849121
435.925781	5371.873047
434.039063	5334.790527
432.152344	5299.050781
430.267578	5373.311523
428.378906	5242.194336
426.492188	5321.730957
424.603516	5308.538086
422.714844	5349.628418
420.826172	5365.552246
418.937500	5335.155762
417.046875	5238.628906
415.158203	5193.729004
413.265625	5233.474121
411.375000	5192.561523
409.484375	5187.352539
407.591797	5244.246582
405.699219	5282.619141
403.806641	5128.155762
401.912109	5186.342773
400.019531	5097.977539
