#Wave		#Intensity
1585.210938	11698.973633
1584.209961	11466.692383
1583.208984	11621.635742
1582.208008	11808.969727
1581.206055	11397.164063
1580.204102	11507.104492
1579.202148	11404.917969
1578.200195	11464.918945
1577.198242	11445.085938
1576.195313	11273.156250
1575.192383	11385.499023
1574.189453	11335.783203
1573.186523	11333.435547
1572.182617	11199.041992
1571.178711	11540.470703
1570.174805	11543.060547
1569.170898	11316.580078
1568.166992	11359.044922
1567.162109	11262.115234
1566.158203	11122.923828
1565.153320	11272.378906
1564.147461	11339.689453
1563.142578	11267.709961
1562.136719	11034.152344
1561.130859	11128.812500
1560.125000	11380.004883
1559.119141	11288.197266
1558.113281	11278.407227
1557.106445	11472.285156
1556.099609	11497.225586
1555.092773	11398.019531
1554.084961	11604.162109
1553.078125	11343.666992
1552.070313	11656.423828
1551.062500	11609.359375
1550.054688	11718.560547
1549.045898	11946.738281
1548.038086	11939.306641
1547.029297	12095.463867
1546.020508	11978.967773
1545.011719	12454.655273
1544.001953	12528.865234
1542.992188	12568.372070
1541.982422	12828.227539
1540.972656	12961.724609
1539.962891	12996.165039
1538.952148	13179.060547
1537.942383	13171.383789
1536.931641	13284.909180
1535.919922	13101.633789
1534.909180	13150.842773
1533.897461	13024.523438
1532.886719	13029.241211
1531.874023	12999.364258
1530.862305	12596.470703
1529.850586	12658.079102
1528.837891	12438.155273
1527.825195	12252.884766
1526.812500	12173.830078
1525.799805	11931.929688
1524.786133	11830.766602
1523.772461	11843.118164
1522.758789	11712.418945
1521.745117	11633.553711
1520.731445	11547.326172
1519.716797	11535.075195
1518.702148	11421.795898
1517.687500	11303.634766
1516.672852	11389.969727
1515.657227	11271.863281
1514.642578	11451.732422
1513.626953	11277.041992
1512.610352	11235.328125
1511.594727	11346.192383
1510.579102	11147.028320
1509.562500	11533.345703
1508.545898	11280.124023
1507.529297	11346.629883
1506.511719	11241.038086
1505.494141	11405.827148
1504.477539	11201.981445
1503.458984	11307.751953
1502.441406	11356.987305
1501.423828	11366.912109
1500.405273	11276.174805
1499.386719	11315.566406
1498.368164	11308.313477
1497.348633	11355.041992
1496.330078	11323.252930
1495.310547	11426.365234
1494.291016	11222.931641
1493.271484	11110.288086
1492.250977	11240.339844
1491.231445	11176.748047
1490.210938	11309.181641
1489.190430	11375.423828
1488.168945	11370.617188
1487.148438	11297.253906
1486.126953	11204.337891
1485.105469	11520.185547
1484.083984	11287.784180
1483.061523	11329.479492
1482.040039	11464.103516
1481.017578	11583.998047
1479.995117	11356.664063
1478.971680	11799.192383
1477.949219	11747.868164
1476.925781	11782.083008
1475.902344	11789.411133
1474.878906	11852.911133
1473.855469	12028.709961
1472.831055	12177.581055
1471.806641	12140.882813
1470.782227	12506.859375
1469.757813	12501.825195
1468.733398	12472.399414
1467.708008	12881.976563
1466.682617	13023.166016
1465.657227	13178.922852
1464.631836	13271.244141
1463.605469	13356.216797
1462.579102	13562.967773
1461.552734	13820.785156
1460.526367	14105.283203
1459.500000	14392.096680
1458.472656	14464.572266
1457.445313	14790.131836
1456.417969	14796.793945
1455.390625	14891.034180
1454.362305	15041.175781
1453.334961	14648.969727
1452.306641	14791.803711
1451.277344	14552.949219
1450.249023	14574.229492
1449.219727	14252.906250
1448.191406	14152.776367
1447.162109	13749.094727
1446.131836	13517.984375
1445.102539	13371.940430
1444.072266	13024.496094
1443.041992	12975.682617
1442.011719	12958.428711
1440.981445	12679.205078
1439.950195	12693.546875
1438.918945	12404.793945
1437.887695	12399.791016
1436.856445	12271.181641
1435.825195	12292.863281
1434.792969	12096.492188
1433.760742	11892.936523
1432.728516	11929.210938
1431.696289	12171.269531
1430.663086	11829.843750
1429.629883	11805.602539
1428.596680	11757.172852
1427.563477	11653.123047
1426.530273	11628.930664
1425.496094	11561.221680
1424.461914	11452.439453
1423.427734	11694.189453
1422.393555	11546.756836
1421.358398	11396.968750
1420.323242	11539.536133
1419.288086	11182.108398
1418.252930	11471.952148
1417.217773	11387.483398
1416.181641	11165.472656
1415.145508	11392.395508
1414.109375	11358.659180
1413.073242	11426.245117
1412.036133	11558.916992
1411.000000	11474.531250
1409.962891	11583.030273
1408.924805	11525.184570
1407.887695	11423.989258
1406.849609	11537.247070
1405.812500	11802.198242
1404.773438	12194.668945
1403.735352	12276.394531
1402.697266	12240.135742
1401.658203	12485.464844
1400.619141	12295.186523
1399.580078	12501.910156
1398.540039	12477.658203
1397.500977	12554.407227
1396.460938	12607.083984
1395.420898	12587.628906
1394.380859	12630.662109
1393.339844	12380.560547
1392.298828	12608.579102
1391.257813	12274.528320
1390.216797	12380.016602
1389.175781	12473.456055
1388.133789	12331.647461
1387.091797	12278.682617
1386.049805	12417.666016
1385.007813	12527.806641
1383.964844	12450.850586
1382.922852	12580.117188
1381.879883	12620.637695
1380.835938	12687.502930
1379.792969	12675.268555
1378.749023	12768.443359
1377.706055	13029.234375
1376.661133	12755.924805
1375.617188	13052.519531
1374.573242	12932.505859
1373.528320	12898.693359
1372.483398	13041.944336
1371.438477	13048.786133
1370.392578	13005.400391
1369.347656	13179.621094
1368.301758	12964.103516
1367.255859	13236.250977
1366.208984	13059.042969
1365.163086	13015.696289
1364.116211	13051.190430
1363.069336	12938.608398
1362.022461	13105.418945
1360.974609	13305.577148
1359.927734	13188.236328
1358.879883	13142.526367
1357.832031	13170.787109
1356.783203	13311.133789
1355.735352	13232.040039
1354.686523	13498.669922
1353.637695	13536.363281
1352.588867	13557.358398
1351.539063	13895.227539
1350.490234	14080.500000
1349.440430	14072.786133
1348.390625	14284.134766
1347.339844	14512.057617
1346.290039	14678.000977
1345.239258	15072.315430
1344.188477	15073.913086
1343.137695	15434.675781
1342.085938	15714.431641
1341.034180	15770.574219
1339.982422	15695.953125
1338.930664	16103.810547
1337.878906	16138.449219
1336.826172	16175.447266
1335.773438	16257.555664
1334.720703	16128.289063
1333.667969	16248.355469
1332.614258	15941.122070
1331.561523	16118.130859
1330.507813	15751.736328
1329.453125	16042.569336
1328.399414	15778.321289
1327.344727	15473.875000
1326.290039	15520.406250
1325.235352	15173.477539
1324.180664	15066.024414
1323.125000	15193.159180
1322.070313	15194.702148
1321.014648	15080.205078
1319.958008	14998.901367
1318.902344	15102.267578
1317.845703	15110.923828
1316.789063	14972.875000
1315.732422	15054.886719
1314.675781	14727.695313
1313.618164	14485.766602
1312.560547	14333.776367
1311.502930	13905.302734
1310.445313	14032.347656
1309.386719	13771.864258
1308.329102	13546.921875
1307.270508	13366.944336
1306.210938	13238.987305
1305.152344	12919.869141
1304.092773	12872.303711
1303.033203	12456.649414
1301.973633	12491.770508
1300.914063	12305.161133
1299.853516	12514.800781
1298.792969	12184.445313
1297.732422	12165.375000
1296.671875	12235.866211
1295.611328	12136.681641
1294.549805	12193.012695
1293.488281	12150.400391
1292.426758	11980.653320
1291.364258	11994.603516
1290.302734	11919.106445
1289.240234	11893.057617
1288.177734	11878.782227
1287.114258	12080.915039
1286.051758	12071.307617
1284.988281	11835.987305
1283.924805	11730.054688
1282.861328	11830.985352
1281.796875	11934.221680
1280.732422	11877.666016
1279.667969	11955.011719
1278.603516	11842.116211
1277.539063	12055.603516
1276.473633	12076.525391
1275.408203	12024.688477
1274.342773	11930.640625
1273.277344	12043.057617
1272.210938	11850.542969
1271.145508	12033.269531
1270.079102	11749.411133
1269.011719	11957.861328
1267.945313	12011.567383
1266.877930	11758.346680
1265.810547	11814.412109
1264.743164	11673.744141
1263.674805	11783.651367
1262.607422	11636.025391
1261.539063	11493.141602
1260.470703	11595.995117
1259.401367	11558.447266
1258.333008	11502.203125
1257.263672	11366.480469
1256.194336	11480.958984
1255.125000	11195.708984
1254.054688	11130.238281
1252.985352	11083.486328
1251.915039	11284.349609
1250.843750	11034.409180
1249.773438	11141.802734
1248.702148	11144.105469
1247.630859	10983.037109
1246.559570	11004.037109
1245.488281	10938.711914
1244.416016	10973.705078
1243.343750	10752.177734
1242.271484	11017.998047
1241.199219	10819.863281
1240.125977	10831.544922
1239.053711	10803.612305
1237.980469	11050.556641
1236.906250	10803.673828
1235.833008	11045.854492
1234.758789	10957.372070
1233.684570	10847.979492
1232.610352	10908.496094
1231.536133	10999.229492
1230.460938	11010.842773
1229.385742	10796.884766
1228.310547	10864.332031
1227.235352	10875.963867
1226.159180	10727.238281
1225.083008	10908.502930
1224.006836	10896.885742
1222.930664	10945.656250
1221.853516	10727.380859
1220.777344	10792.415039
1219.700195	10794.754883
1218.622070	10913.115234
1217.544922	10936.305664
1216.466797	11177.515625
1215.388672	10994.250000
1214.310547	11010.451172
1213.232422	11253.805664
1212.153320	11290.799805
1211.074219	11121.564453
1209.995117	11105.289063
1208.916016	11473.476563
1207.835938	11295.045898
1206.755859	11355.136719
1205.675781	11299.475586
1204.595703	11246.151367
1203.514648	11165.085938
1202.434570	11236.714844
1201.353516	11280.561523
1200.271484	11287.396484
1199.190430	11213.322266
1198.108398	11120.791016
1197.026367	10958.981445
1195.944336	11090.619141
1194.862305	11028.195313
1193.779297	10790.307617
1192.696289	10965.756836
1191.613281	10924.169922
1190.530273	10718.760742
1189.446289	10836.431641
1188.362305	10471.972656
1187.278320	10605.787109
1186.194336	10582.762695
1185.109375	10603.543945
1184.024414	10527.521484
1182.939453	10624.339844
1181.854492	10640.489258
1180.768555	10504.623047
1179.683594	10329.669922
1178.597656	10311.336914
1177.510742	10145.704102
1176.424805	10219.463867
1175.337891	10350.707031
1174.250977	10396.787109
1173.164063	10111.692383
1172.077148	10171.596680
1170.989258	10192.396484
1169.901367	10112.066406
1168.813477	10222.479492
1167.724609	10183.525391
1166.636719	10158.367188
1165.547852	10202.106445
1164.458984	10149.404297
1163.369141	10252.800781
1162.280273	10317.140625
1161.190430	10179.559570
1160.100586	10266.823242
1159.010742	10292.130859
1157.919922	10344.939453
1156.829102	10216.635742
1155.738281	10367.983398
1154.647461	10512.390625
1153.555664	10397.875000
1152.464844	10510.148438
1151.373047	10507.881836
1150.280273	10594.897461
1149.188477	10368.308594
1148.095703	10269.961914
1147.002930	10704.719727
1145.910156	10322.711914
1144.817383	10354.786133
1143.723633	10174.215820
1142.629883	10245.165039
1141.536133	10304.657227
1140.441406	9968.840820
1139.347656	10160.858398
1138.252930	10234.030273
1137.158203	10085.681641
1136.062500	10017.296875
1134.967773	10140.662109
1133.872070	10095.113281
1132.776367	10188.748047
1131.679688	10227.599609
1130.583984	10095.403320
1129.487305	10316.650391
1128.390625	10330.373047
1127.292969	10056.943359
1126.196289	10125.396484
1125.098633	10407.947266
1124.000977	10209.831055
1122.903320	9884.290039
1121.804688	10269.147461
1120.706055	10207.747070
1119.607422	10175.952148
1118.508789	10182.845703
1117.409180	10207.931641
1116.310547	10137.497070
1115.210938	10087.553711
1114.110352	10160.374023
1113.010742	10074.085938
1111.910156	9990.106445
1110.809570	9887.989258
1109.708984	10128.843750
1108.607422	10006.304688
1107.506836	9995.050781
1106.405273	10036.000977
1105.303711	10219.883789
1104.201172	10088.353516
1103.098633	9802.650391
1101.996094	10049.953125
1100.893555	9927.611328
1099.791016	9932.251953
1098.687500	9968.615234
1097.583984	9970.977539
1096.480469	10016.375000
1095.376953	9966.637695
1094.272461	9844.467773
1093.167969	9946.452148
1092.063477	9989.548828
1090.958008	9912.705078
1089.853516	10141.286133
1088.748047	10016.946289
1087.642578	10118.777344
1086.536133	10193.434570
1085.430664	10143.748047
1084.324219	10071.485352
1083.217773	10494.019531
1082.110352	10191.321289
1081.003906	10484.923828
1079.896484	10419.419922
1078.789063	10446.489258
1077.680664	10527.708008
1076.573242	10773.596680
1075.464844	10696.803711
1074.356445	10516.301758
1073.247070	10374.208008
1072.138672	10531.995117
1071.029297	10417.003906
1069.919922	10502.605469
1068.809570	10457.505859
1067.700195	10457.470703
1066.589844	10198.476563
1065.479492	10072.422852
1064.368164	10295.301758
1063.257813	10041.010742
1062.146484	10000.565430
1061.035156	10020.870117
1059.922852	10194.086914
1058.811523	10029.971680
1057.699219	10041.261719
1056.586914	9964.898438
1055.473633	10059.331055
1054.361328	10041.401367
1053.248047	9830.331055
1052.134766	9821.439453
1051.021484	9702.549805
1049.907227	9794.688477
1048.792969	9693.805664
1047.678711	9763.469727
1046.564453	9857.773438
1045.449219	9732.274414
1044.333984	9781.703125
1043.218750	9831.109375
1042.103516	9701.214844
1040.987305	9638.589844
1039.871094	9643.192383
1038.754883	9788.880859
1037.638672	9558.350586
1036.521484	9744.285156
1035.404297	9666.049805
1034.287109	9623.648438
1033.169922	9753.517578
1032.051758	9762.554688
1030.933594	9814.072266
1029.815430	9581.649414
1028.697266	9903.625977
1027.578125	9664.580078
1026.458984	9818.838867
1025.339844	9738.500000
1024.220703	9711.791016
1023.100586	9767.699219
1021.980469	9859.295898
1020.860352	9814.722656
1019.740234	9830.408203
1018.619141	9823.779297
1017.498047	9607.518555
1016.376953	9707.963867
1015.255859	9623.342773
1014.133789	9683.623047
1013.011719	9795.124023
1011.889648	9708.309570
1010.767578	9768.528320
1009.644531	9719.610352
1008.521484	9612.831055
1007.398438	9839.958008
1006.274414	9813.306641
1005.151367	9613.135742
1004.027344	9697.757813
1002.902344	9811.250000
1001.778320	9922.467773
1000.653320	9964.729492
999.528320	9922.524414
998.403320	9640.382813
997.278320	9713.774414
996.152344	9687.196289
995.026367	9556.273438
993.900391	9876.034180
992.773438	9736.248047
991.646484	9969.290039
990.519531	9527.847656
989.392578	9909.427734
988.265625	9905.014648
987.137695	9807.494141
986.009766	9825.267578
984.881836	9911.725586
983.752930	9931.682617
982.624023	10093.383789
981.495117	9803.269531
980.366211	10051.269531
979.236328	9801.133789
978.106445	9971.569336
976.976563	9878.644531
975.846680	9889.723633
974.715820	10035.696289
973.585938	9814.580078
972.454102	9746.084961
971.323242	9514.079102
970.191406	9752.802734
969.060547	9821.323242
967.927734	9677.794922
966.795898	9797.084961
965.663086	9845.680664
964.530273	9764.036133
963.397461	9841.300781
962.264648	9927.354492
961.130859	10004.546875
959.997070	9847.963867
958.863281	9779.632813
957.729492	9748.802734
956.594727	9693.744141
955.459961	9918.508789
954.325195	9947.135742
953.189453	9986.760742
952.053711	9832.621094
950.917969	9715.968750
949.782227	9707.200195
948.646484	9654.431641
947.509766	9566.490234
946.373047	9610.540039
945.235352	9625.986328
944.098633	9511.729492
942.960938	9474.442383
941.823242	9551.428711
940.685547	9604.215820
939.546875	9424.173828
938.408203	9547.228516
937.269531	9608.759766
936.129883	9729.521484
934.991211	9641.769531
933.851563	9554.056641
932.711914	9797.573242
931.571289	9738.369141
930.431641	9804.155273
929.291016	9786.619141
928.149414	9869.893555
927.008789	9773.478516
925.867188	9755.958984
924.725586	9964.005859
923.583984	9977.101563
922.441406	9823.833008
921.299805	9915.735352
920.157227	9716.601563
919.013672	9618.177734
917.871094	9699.126953
916.727539	9567.953125
915.583984	9434.650391
914.439453	9572.407227
913.295898	9537.486328
912.151367	9557.193359
911.006836	9297.336914
909.861328	9557.274414
908.716797	9561.679688
907.571289	9339.097656
906.424805	9288.997070
905.279297	9505.068359
904.132813	9153.962891
902.986328	9596.747070
901.839844	9322.080078
900.692383	9374.476563
899.545898	9448.640625
898.398438	9492.268555
897.250000	9483.601563
896.102539	9420.496094
894.954102	9300.812500
893.805664	9387.964844
892.656250	9468.548828
891.507813	9379.391602
890.358398	9283.749023
889.208984	9657.884766
888.058594	9420.896484
886.908203	9423.124023
885.758789	9431.869141
884.607422	9377.599609
883.457031	9347.249023
882.305664	9401.610352
881.154297	9169.336914
880.002930	9247.590820
878.850586	9479.900391
877.698242	9223.896484
876.545898	9503.830078
875.393555	9315.167969
874.240234	9378.118164
873.086914	9321.807617
871.933594	9300.198242
870.780273	9250.429688
869.625977	9198.515625
868.471680	9352.385742
867.317383	9231.177734
866.162109	9281.051758
865.007813	9229.174805
863.852539	9341.781250
862.696289	9387.267578
861.541016	9296.465820
860.384766	9261.928711
859.228516	9173.356445
858.072266	9262.067383
856.915039	9091.414063
855.757813	9164.978516
854.600586	9061.384766
853.442383	9253.696289
852.285156	9242.966797
851.126953	9204.180664
849.968750	9189.150391
848.809570	9187.071289
847.650391	9286.376953
846.491211	9135.468750
845.332031	9165.743164
844.171875	9150.734375
843.012695	9282.282227
841.851563	9359.903320
840.691406	9140.210938
839.530273	9222.134766
838.369141	9235.118164
837.208008	9245.942383
836.046875	9226.628906
834.884766	9375.160156
833.722656	9250.413086
832.560547	9259.069336
831.397461	9160.207031
830.234375	9110.833984
829.071289	9128.111328
827.908203	9093.808594
826.744141	9143.305664
825.580078	9130.491211
824.416016	9319.534180
823.251953	9162.843750
822.086914	9038.419922
820.921875	9203.747070
819.756836	9133.003906
818.590820	9128.785156
817.425781	9055.945313
816.259766	9064.607422
815.092773	9071.121094
813.926758	9118.348633
812.759766	8953.447266
811.592773	9148.475586
810.424805	8994.347656
809.257813	9035.123047
808.089844	9073.739258
806.920898	9084.515625
805.752930	9035.377930
804.583984	9005.514648
803.415039	9080.454102
802.246094	9174.602539
801.076172	9110.523438
799.906250	9029.375000
798.736328	9065.779297
797.566406	8837.282227
796.395508	9036.022461
795.224609	9025.423828
794.053711	8952.921875
792.881836	9166.437500
791.710938	8968.045898
790.538086	9192.125977
789.366211	9369.181641
788.194336	9268.961914
787.021484	9452.313477
785.848633	9479.996094
784.674805	9486.356445
783.500977	9454.368164
782.327148	9252.006836
781.153320	9226.473633
779.979492	9186.048828
778.804688	9209.492188
777.629883	9028.647461
776.454102	9115.937500
775.279297	9105.348633
774.103516	9120.281250
772.927734	9033.160156
771.750977	9048.100586
770.575195	9128.908203
769.398438	9158.689453
768.220703	9311.649414
767.043945	9258.556641
765.866211	9311.639648
764.688477	9368.942383
763.510742	9443.195313
762.332031	9426.185547
761.153320	9368.880859
759.974609	9776.016602
758.794922	9754.699219
757.616211	10068.293945
756.436523	10415.651367
755.255859	10635.728516
754.076172	11097.177734
752.895508	11683.358398
751.714844	12457.702148
750.533203	13316.360352
749.352539	13829.675781
748.170898	14808.222656
746.988281	15498.642578
745.806641	15750.982422
744.624023	16324.581055
743.441406	16103.117188
742.258789	16270.607422
741.075195	15928.822266
739.891602	15893.485352
738.708008	15706.108398
737.523438	15928.427734
736.339844	15888.890625
735.155273	16244.021484
733.969727	16305.705078
732.785156	16245.009766
731.599609	16015.622070
730.414063	15451.086914
729.227539	14920.538086
728.041992	13903.390625
726.855469	13213.302734
725.667969	12479.291992
724.481445	11480.250977
723.293945	11031.228516
722.106445	10679.247070
720.918945	10203.252930
719.730469	9794.808594
718.541992	9729.449219
717.353516	9525.308594
716.164063	9344.391602
714.975586	9304.404297
713.786133	9195.078125
712.595703	9157.244141
711.406250	9150.938477
710.215820	9075.325195
709.025391	8943.050781
707.833984	9043.861328
706.642578	8817.207031
705.451172	9035.506836
704.259766	8876.087891
703.068359	9058.617188
701.875977	8817.486328
700.683594	9010.424805
699.490234	9077.517578
698.297852	9180.202148
697.104492	9454.625977
695.910156	9645.143555
694.716797	9693.179688
693.522461	9860.524414
692.328125	9990.117188
691.132813	9822.503906
689.938477	9878.820313
688.743164	9748.958008
687.547852	9819.902344
686.351563	9579.307617
685.155273	9455.871094
683.958984	9685.647461
682.762695	9374.214844
681.565430	9489.022461
680.368164	9415.835938
679.170898	9085.889648
677.973633	9229.904297
676.775391	9315.421875
675.577148	9256.943359
674.378906	9390.388672
673.179688	9448.698242
671.980469	9206.759766
670.781250	9229.649414
669.581055	9146.248047
668.381836	9269.144531
667.181641	9154.527344
665.980469	9033.714844
664.780273	8944.187500
663.579102	9012.894531
662.377930	9146.081055
661.175781	8813.165039
659.973633	9031.617188
658.771484	9052.407227
657.569336	8867.357422
656.367188	8971.319336
655.164063	9035.749023
653.960938	9150.010742
652.756836	9230.985352
651.552734	9062.717773
650.348633	9374.133789
649.144531	9367.817383
647.939453	9326.222656
646.735352	9396.685547
645.529297	9355.103516
644.324219	9558.250000
643.118164	9365.293945
641.912109	9572.489258
640.706055	9731.922852
639.499023	9497.620117
638.292969	9404.282227
637.084961	9356.546875
635.877930	9323.327148
634.669922	9215.601563
633.461914	9287.973633
632.253906	9151.338867
631.044922	9174.044922
629.836914	9200.876953
628.626953	9136.720703
627.417969	9082.929688
626.208008	8847.297852
624.998047	8981.618164
623.788086	8913.437500
622.577148	8884.528320
621.366211	8729.682617
620.155273	8771.011719
618.944336	8835.022461
617.732422	8882.497070
616.520508	8733.981445
615.308594	8762.894531
614.095703	8758.804688
612.882813	8775.329102
611.669922	8620.790039
610.457031	8491.047852
609.243164	8625.039063
608.029297	8678.647461
606.815430	8658.107422
605.600586	8629.340820
604.385742	8357.738281
603.170898	8738.510742
601.955078	8543.120117
600.740234	8534.971680
599.524414	8771.506836
598.307617	8644.079102
597.091797	8487.937500
595.875000	8537.338867
594.658203	8494.275391
593.440430	8687.415039
592.222656	8506.765625
591.004883	8613.593750
589.787109	8642.382813
588.568359	8578.824219
587.349609	8580.938477
586.130859	8416.927734
584.912109	8503.145508
583.692383	8501.173828
582.472656	8306.551758
581.251953	8503.379883
580.032227	8413.322266
578.811523	8313.064453
577.589844	8413.516602
576.369141	8425.895508
575.147461	8425.988281
573.925781	8565.218750
572.703125	8692.110352
571.481445	8737.134766
570.258789	8677.855469
569.035156	8957.951172
567.812500	8980.399414
566.588867	9102.958008
565.365234	9200.945313
564.140625	9108.947266
562.916992	9106.833984
561.692383	9247.621094
560.466797	9298.540039
559.242188	9235.168945
558.016602	9153.465820
556.791016	9049.366211
555.564453	8896.376953
554.337891	8865.772461
553.111328	8747.542969
551.884766	8680.308594
550.657227	8494.950195
549.429688	8523.529297
548.202148	8592.818359
546.974609	8438.143555
545.746094	8389.374023
544.517578	8580.733398
543.288086	8422.098633
542.058594	8383.534180
540.829102	8647.960938
539.599609	8412.169922
538.370117	8522.000977
537.139648	8469.223633
535.909180	8379.903320
534.677734	8574.966797
533.446289	8485.663086
532.214844	8566.925781
530.983398	8506.079102
529.750977	8305.249023
528.519531	8347.951172
527.286133	8277.054688
526.053711	8471.822266
524.820313	8433.364258
523.586914	8467.888672
522.353516	8449.711914
521.119141	8603.740234
519.884766	8350.596680
518.650391	8478.250977
517.415039	8342.669922
516.179688	8207.152344
514.944336	8401.524414
513.708984	8316.629883
