#Wave		#Intensity
1585.210938	10270.319336
1584.209961	10145.437500
1583.208984	10158.318359
1582.208008	10141.234375
1581.206055	10211.519531
1580.204102	10309.227539
1579.202148	10137.427734
1578.200195	10202.679688
1577.198242	10083.347656
1576.195313	9984.011719
1575.192383	10193.848633
1574.189453	10286.451172
1573.186523	10122.342773
1572.182617	9978.234375
1571.178711	9978.658203
1570.174805	10238.084961
1569.170898	10141.348633
1568.166992	10134.269531
1567.162109	10206.836914
1566.158203	10154.956055
1565.153320	10048.364258
1564.147461	10128.364258
1563.142578	9977.058594
1562.136719	10037.150391
1561.130859	10005.242188
1560.125000	10087.669922
1559.119141	9879.346680
1558.113281	9976.669922
1557.106445	9942.316406
1556.099609	9796.232422
1555.092773	9913.373047
1554.084961	10047.839844
1553.078125	10053.204102
1552.070313	9763.309570
1551.062500	10116.018555
1550.054688	9952.716797
1549.045898	9853.951172
1548.038086	9985.782227
1547.029297	10006.021484
1546.020508	10130.331055
1545.011719	9793.764648
1544.001953	9947.790039
1542.992188	10096.798828
1541.982422	10060.043945
1540.972656	9842.592773
1539.962891	10021.229492
1538.952148	9766.757813
1537.942383	10007.184570
1536.931641	9834.444336
1535.919922	9844.772461
1534.909180	9800.703125
1533.897461	9717.100586
1532.886719	9865.844727
1531.874023	9868.743164
1530.862305	9948.222656
1529.850586	9852.307617
1528.837891	9946.573242
1527.825195	9988.953125
1526.812500	10011.568359
1525.799805	9940.395508
1524.786133	9921.066406
1523.772461	10025.084961
1522.758789	9847.902344
1521.745117	10085.043945
1520.731445	9755.074219
1519.716797	9799.884766
1518.702148	9861.925781
1517.687500	9983.070313
1516.672852	9756.849609
1515.657227	9631.693359
1514.642578	9878.381836
1513.626953	9903.414063
1512.610352	10012.117188
1511.594727	9695.076172
1510.579102	9813.616211
1509.562500	9846.019531
1508.545898	9743.154297
1507.529297	9642.791016
1506.511719	9879.232422
1505.494141	9778.880859
1504.477539	10059.423828
1503.458984	9941.879883
1502.441406	9885.786133
1501.423828	9945.127930
1500.405273	9925.881836
1499.386719	9791.278320
1498.368164	9794.158203
1497.348633	9816.664063
1496.330078	9782.741211
1495.310547	9638.466797
1494.291016	9808.111328
1493.271484	9739.887695
1492.250977	9686.398438
1491.231445	9760.356445
1490.210938	9902.883789
1489.190430	9655.882813
1488.168945	9847.350586
1487.148438	9913.867188
1486.126953	9882.436523
1485.105469	9630.747070
1484.083984	9758.439453
1483.061523	9785.773438
1482.040039	9639.434570
1481.017578	9791.499023
1479.995117	9965.502930
1478.971680	9682.329102
1477.949219	9885.609375
1476.925781	9903.107422
1475.902344	9857.081055
1474.878906	9806.189453
1473.855469	9914.041016
1472.831055	10036.495117
1471.806641	9944.100586
1470.782227	10039.652344
1469.757813	9932.656250
1468.733398	9991.580078
1467.708008	9835.859375
1466.682617	10011.818359
1465.657227	10048.746094
1464.631836	10002.789063
1463.605469	9895.930664
1462.579102	9998.638672
1461.552734	10018.486328
1460.526367	9967.701172
1459.500000	10101.980469
1458.472656	10095.015625
1457.445313	10226.778320
1456.417969	10185.722656
1455.390625	10176.310547
1454.362305	10183.926758
1453.334961	10121.017578
1452.306641	10218.598633
1451.277344	9961.247070
1450.249023	10148.738281
1449.219727	10153.919922
1448.191406	10146.952148
1447.162109	10122.986328
1446.131836	10069.890625
1445.102539	10223.173828
1444.072266	10230.758789
1443.041992	10226.206055
1442.011719	10277.458984
1440.981445	10238.937500
1439.950195	10166.478516
1438.918945	10195.886719
1437.887695	10142.859375
1436.856445	10344.341797
1435.825195	10225.878906
1434.792969	10180.144531
1433.760742	10112.628906
1432.728516	10161.381836
1431.696289	10205.271484
1430.663086	10111.164063
1429.629883	10050.976563
1428.596680	9930.323242
1427.563477	9899.227539
1426.530273	9885.075195
1425.496094	10054.708008
1424.461914	9830.192383
1423.427734	9777.386719
1422.393555	9862.351563
1421.358398	9761.237305
1420.323242	9822.012695
1419.288086	9851.365234
1418.252930	9938.656250
1417.217773	10062.123047
1416.181641	9980.377930
1415.145508	10012.083984
1414.109375	9966.572266
1413.073242	9853.539063
1412.036133	9904.542969
1411.000000	9957.935547
1409.962891	9914.880859
1408.924805	9797.129883
1407.887695	9819.184570
1406.849609	9802.684570
1405.812500	9766.921875
1404.773438	9875.659180
1403.735352	9914.530273
1402.697266	10001.527344
1401.658203	9907.991211
1400.619141	9852.992188
1399.580078	9810.041992
1398.540039	9870.529297
1397.500977	10022.365234
1396.460938	9789.482422
1395.420898	9753.790039
1394.380859	9835.864258
1393.339844	9901.084961
1392.298828	9894.214844
1391.257813	9851.324219
1390.216797	9885.284180
1389.175781	9907.227539
1388.133789	9977.162109
1387.091797	9715.924805
1386.049805	9886.630859
1385.007813	9822.203125
1383.964844	9755.404297
1382.922852	9904.415039
1381.879883	9796.875000
1380.835938	9873.916016
1379.792969	9926.963867
1378.749023	9853.022461
1377.706055	9836.593750
1376.661133	9762.700195
1375.617188	9911.487305
1374.573242	9756.226563
1373.528320	9828.373047
1372.483398	9804.785156
1371.438477	9675.956055
1370.392578	9721.764648
1369.347656	9729.295898
1368.301758	9770.291016
1367.255859	9847.120117
1366.208984	9744.698242
1365.163086	9692.489258
1364.116211	9750.175781
1363.069336	9979.779297
1362.022461	9741.320313
1360.974609	9770.313477
1359.927734	9570.182617
1358.879883	9732.818359
1357.832031	9790.419922
1356.783203	9695.352539
1355.735352	9922.241211
1354.686523	9827.184570
1353.637695	9801.290039
1352.588867	9899.326172
1351.539063	9813.861328
1350.490234	9761.781250
1349.440430	9638.274414
1348.390625	9762.452148
1347.339844	9860.390625
1346.290039	9629.834961
1345.239258	9763.452148
1344.188477	9706.686523
1343.137695	9768.872070
1342.085938	9664.565430
1341.034180	9650.650391
1339.982422	9876.826172
1338.930664	9632.341797
1337.878906	9715.859375
1336.826172	9694.815430
1335.773438	9747.408203
1334.720703	9593.387695
1333.667969	9686.336914
1332.614258	9608.347656
1331.561523	9684.642578
1330.507813	9613.802734
1329.453125	9884.575195
1328.399414	9621.622070
1327.344727	9712.073242
1326.290039	9653.137695
1325.235352	9681.920898
1324.180664	9613.536133
1323.125000	9789.199219
1322.070313	9694.764648
1321.014648	9669.044922
1319.958008	9804.333008
1318.902344	9612.901367
1317.845703	9613.245117
1316.789063	9578.096680
1315.732422	9732.212891
1314.675781	9739.625977
1313.618164	9718.658203
1312.560547	9768.624023
1311.502930	9771.293945
1310.445313	9799.957031
1309.386719	9946.740234
1308.329102	9597.409180
1307.270508	9659.152344
1306.210938	9768.091797
1305.152344	9898.229492
1304.092773	9837.139648
1303.033203	9903.497070
1301.973633	9953.310547
1300.914063	9861.583008
1299.853516	9826.489258
1298.792969	9796.125000
1297.732422	9786.986328
1296.671875	9806.131836
1295.611328	9806.419922
1294.549805	9790.215820
1293.488281	9797.570313
1292.426758	9654.221680
1291.364258	9626.287109
1290.302734	9723.110352
1289.240234	9718.703125
1288.177734	9759.000000
1287.114258	9846.322266
1286.051758	9745.469727
1284.988281	9764.572266
1283.924805	9623.816406
1282.861328	9652.334961
1281.796875	9535.159180
1280.732422	9737.525391
1279.667969	9662.655273
1278.603516	9681.746094
1277.539063	9733.696289
1276.473633	9586.108398
1275.408203	9682.643555
1274.342773	9593.784180
1273.277344	9608.173828
1272.210938	9538.127930
1271.145508	9737.756836
1270.079102	9627.859375
1269.011719	9684.415039
1267.945313	9560.513672
1266.877930	9722.482422
1265.810547	9661.866211
1264.743164	9547.413086
1263.674805	9568.802734
1262.607422	9445.053711
1261.539063	9515.600586
1260.470703	9469.126953
1259.401367	9450.744141
1258.333008	9532.936523
1257.263672	9652.505859
1256.194336	9451.745117
1255.125000	9540.894531
1254.054688	9415.018555
1252.985352	9429.374023
1251.915039	9724.021484
1250.843750	9551.478516
1249.773438	9617.160156
1248.702148	9451.713867
1247.630859	9666.752930
1246.559570	9466.365234
1245.488281	9450.356445
1244.416016	9411.030273
1243.343750	9481.317383
1242.271484	9728.757813
1241.199219	9232.545898
1240.125977	9263.208008
1239.053711	9491.894531
1237.980469	9573.733398
1236.906250	9327.164063
1235.833008	9474.195313
1234.758789	9476.834961
1233.684570	9449.215820
1232.610352	9430.916016
1231.536133	9286.997070
1230.460938	9408.292969
1229.385742	9406.289063
1228.310547	9408.934570
1227.235352	9309.303711
1226.159180	9314.291992
1225.083008	9484.240234
1224.006836	9456.666016
1222.930664	9285.112305
1221.853516	9352.790039
1220.777344	9441.332031
1219.700195	9501.983398
1218.622070	9409.458008
1217.544922	9586.087891
1216.466797	9319.622070
1215.388672	9403.434570
1214.310547	9382.878906
1213.232422	9290.474609
1212.153320	9427.539063
1211.074219	9541.375000
1209.995117	9460.576172
1208.916016	9426.130859
1207.835938	9447.270508
1206.755859	9320.241211
1205.675781	9350.651367
1204.595703	9223.695313
1203.514648	9367.474609
1202.434570	9474.183594
1201.353516	9428.218750
1200.271484	9338.343750
1199.190430	9338.656250
1198.108398	9466.076172
1197.026367	9390.112305
1195.944336	9471.263672
1194.862305	9381.471680
1193.779297	9270.936523
1192.696289	9391.304688
1191.613281	9146.943359
1190.530273	9322.667969
1189.446289	9272.220703
1188.362305	9233.327148
1187.278320	9118.348633
1186.194336	9224.756836
1185.109375	9358.780273
1184.024414	9331.421875
1182.939453	9269.511719
1181.854492	9182.288086
1180.768555	9184.923828
1179.683594	9171.438477
1178.597656	9151.051758
1177.510742	9181.310547
1176.424805	9246.072266
1175.337891	9181.967773
1174.250977	9186.895508
1173.164063	9063.038086
1172.077148	9139.262695
1170.989258	9215.453125
1169.901367	9277.821289
1168.813477	9078.223633
1167.724609	9090.053711
1166.636719	9129.439453
1165.547852	9028.737305
1164.458984	9081.892578
1163.369141	9141.908203
1162.280273	9018.319336
1161.190430	9098.970703
1160.100586	9046.548828
1159.010742	8962.042969
1157.919922	9116.019531
1156.829102	8978.811523
1155.738281	9146.467773
1154.647461	8949.737305
1153.555664	9080.673828
1152.464844	8989.394531
1151.373047	8996.615234
1150.280273	9145.768555
1149.188477	9150.662109
1148.095703	9212.759766
1147.002930	9197.044922
1145.910156	9000.636719
1144.817383	9204.508789
1143.723633	9104.208008
1142.629883	9001.665039
1141.536133	9107.131836
1140.441406	9201.128906
1139.347656	9212.846680
1138.252930	8966.480469
1137.158203	8907.458008
1136.062500	9184.043945
1134.967773	9013.161133
1133.872070	9079.668945
1132.776367	9125.614258
1131.679688	8979.942383
1130.583984	9251.649414
1129.487305	9190.368164
1128.390625	9078.966797
1127.292969	9430.235352
1126.196289	9307.435547
1125.098633	9093.570313
1124.000977	9014.166992
1122.903320	9171.601563
1121.804688	9035.301758
1120.706055	9042.447266
1119.607422	8926.712891
1118.508789	9011.226563
1117.409180	8970.606445
1116.310547	9130.114258
1115.210938	8789.380859
1114.110352	9021.593750
1113.010742	8899.192383
1111.910156	8974.509766
1110.809570	8929.402344
1109.708984	8952.444336
1108.607422	9129.873047
1107.506836	8993.957031
1106.405273	8885.333008
1105.303711	8910.630859
1104.201172	8981.289063
1103.098633	8949.851563
1101.996094	9036.340820
1100.893555	8941.424805
1099.791016	9036.944336
1098.687500	8880.882813
1097.583984	8985.434570
1096.480469	8988.008789
1095.376953	9004.169922
1094.272461	9061.077148
1093.167969	8966.293945
1092.063477	8898.709961
1090.958008	8944.287109
1089.853516	8944.600586
1088.748047	9123.585938
1087.642578	8863.822266
1086.536133	8981.707031
1085.430664	8923.243164
1084.324219	8880.623047
1083.217773	9082.014648
1082.110352	8939.993164
1081.003906	9003.530273
1079.896484	8954.153320
1078.789063	8870.938477
1077.680664	9096.932617
1076.573242	9067.871094
1075.464844	8930.545898
1074.356445	9063.911133
1073.247070	8926.644531
1072.138672	8920.184570
1071.029297	8888.936523
1069.919922	8997.404297
1068.809570	9063.021484
1067.700195	9018.245117
1066.589844	8905.933594
1065.479492	8912.991211
1064.368164	9073.100586
1063.257813	8891.087891
1062.146484	8958.886719
1061.035156	8902.941406
1059.922852	8795.294922
1058.811523	8849.578125
1057.699219	9000.495117
1056.586914	8856.938477
1055.473633	8879.712891
1054.361328	8830.592773
1053.248047	8651.230469
1052.134766	8923.274414
1051.021484	8880.909180
1049.907227	8901.405273
1048.792969	8865.793945
1047.678711	8832.440430
1046.564453	8994.237305
1045.449219	8942.928711
1044.333984	8828.867188
1043.218750	8972.625000
1042.103516	8800.339844
1040.987305	8834.253906
1039.871094	8814.393555
1038.754883	8825.893555
1037.638672	8727.675781
1036.521484	8757.096680
1035.404297	8661.174805
1034.287109	8677.169922
1033.169922	8834.091797
1032.051758	8914.901367
1030.933594	8881.634766
1029.815430	8756.723633
1028.697266	8841.964844
1027.578125	8784.153320
1026.458984	8728.601563
1025.339844	8722.211914
1024.220703	8860.976563
1023.100586	8646.925781
1021.980469	8796.804688
1020.860352	8835.035156
1019.740234	8701.451172
1018.619141	8831.140625
1017.498047	8876.026367
1016.376953	8849.542969
1015.255859	8892.173828
1014.133789	8727.518555
1013.011719	8955.095703
1011.889648	8843.962891
1010.767578	8948.916016
1009.644531	8862.325195
1008.521484	8700.080078
1007.398438	8740.447266
1006.274414	8831.976563
1005.151367	8827.799805
1004.027344	8843.643555
1002.902344	8681.577148
1001.778320	8808.608398
1000.653320	8751.090820
999.528320	8871.381836
998.403320	8807.208984
997.278320	8856.350586
996.152344	8594.555664
995.026367	8832.448242
993.900391	8697.302734
992.773438	8482.320313
991.646484	8453.816406
990.519531	8733.675781
989.392578	8716.215820
988.265625	8567.937500
987.137695	8656.931641
986.009766	8592.953125
984.881836	8650.877930
983.752930	8615.728516
982.624023	8449.914063
981.495117	8574.262695
980.366211	8539.151367
979.236328	8614.727539
978.106445	8676.991211
976.976563	8520.192383
975.846680	8675.351563
974.715820	8726.500000
973.585938	8596.325195
972.454102	8545.785156
971.323242	8406.866211
970.191406	8559.664063
969.060547	8727.856445
967.927734	8694.997070
966.795898	8569.413086
965.663086	8503.489258
964.530273	8558.981445
963.397461	8512.946289
962.264648	8614.738281
961.130859	8692.221680
959.997070	8381.574219
958.863281	8622.214844
957.729492	8673.194336
956.594727	8459.714844
955.459961	8629.674805
954.325195	8544.052734
953.189453	8383.593750
952.053711	8427.960938
950.917969	8626.388672
949.782227	8562.846680
948.646484	8640.144531
947.509766	8528.232422
946.373047	8528.530273
945.235352	8454.069336
944.098633	8454.381836
942.960938	8450.297852
941.823242	8573.654297
940.685547	8453.116211
939.546875	8567.630859
938.408203	8495.452148
937.269531	8581.366211
936.129883	8592.618164
934.991211	8551.201172
933.851563	8564.646484
932.711914	8330.240234
931.571289	8576.167969
930.431641	8585.212891
929.291016	8624.937500
928.149414	8583.564453
927.008789	8564.117188
925.867188	8691.433594
924.725586	8488.018555
923.583984	8691.922852
922.441406	8646.198242
921.299805	8440.740234
920.157227	8758.287109
919.013672	8649.141602
917.871094	8480.996094
916.727539	8520.638672
915.583984	8446.591797
914.439453	8383.504883
913.295898	8538.945313
912.151367	8624.411133
911.006836	8517.644531
909.861328	8443.677734
908.716797	8526.921875
907.571289	8313.302734
906.424805	8427.085938
905.279297	8418.650391
904.132813	8477.830078
902.986328	8458.482422
901.839844	8317.057617
900.692383	8485.198242
899.545898	8461.500977
898.398438	8413.849609
897.250000	8379.287109
896.102539	8486.286133
894.954102	8456.075195
893.805664	8345.340820
892.656250	8243.360352
891.507813	8430.791992
890.358398	8544.180664
889.208984	8653.168945
888.058594	8466.414063
886.908203	8323.215820
885.758789	8477.816406
884.607422	8436.797852
883.457031	8558.717773
882.305664	8244.054688
881.154297	8339.906250
880.002930	8268.562500
878.850586	8132.140137
877.698242	8395.025391
876.545898	8258.635742
875.393555	8295.812500
874.240234	8226.723633
873.086914	8331.093750
871.933594	8340.052734
870.780273	8327.336914
869.625977	8394.783203
868.471680	8280.261719
867.317383	8287.054688
866.162109	8397.760742
865.007813	8417.509766
863.852539	8216.525391
862.696289	8405.055664
861.541016	8351.246094
860.384766	8409.909180
859.228516	8334.500977
858.072266	8375.848633
856.915039	8278.871094
855.757813	8313.728516
854.600586	8253.528320
853.442383	8376.916016
852.285156	8433.317383
851.126953	8293.260742
849.968750	8390.657227
848.809570	8362.867188
847.650391	8358.818359
846.491211	8309.480469
845.332031	8361.503906
844.171875	8316.498047
843.012695	8144.356934
841.851563	8284.721680
840.691406	8013.571777
839.530273	8274.507813
838.369141	8087.457031
837.208008	8115.762695
836.046875	8247.362305
834.884766	8092.718750
833.722656	8357.640625
832.560547	8286.920898
831.397461	8091.516602
830.234375	8091.831055
829.071289	8188.864258
827.908203	8073.118652
826.744141	8292.565430
825.580078	8108.116699
824.416016	8198.613281
823.251953	8035.736816
822.086914	8063.961914
820.921875	8029.942383
819.756836	8066.736328
818.590820	8150.700684
817.425781	8279.660156
816.259766	8069.815918
815.092773	8087.273438
813.926758	8061.862793
812.759766	8192.864258
811.592773	8137.452148
810.424805	8186.998535
809.257813	8112.341797
808.089844	7992.767090
806.920898	7999.509766
805.752930	8038.341309
804.583984	7983.035645
803.415039	7899.952637
802.246094	8054.236328
801.076172	8001.100098
799.906250	8161.700684
798.736328	7828.662598
797.566406	7760.658691
796.395508	7923.337891
795.224609	8030.427734
794.053711	8056.349121
792.881836	7792.005859
791.710938	7881.980469
790.538086	7997.512207
789.366211	8070.335449
788.194336	7974.675781
787.021484	7911.036133
785.848633	8039.241211
784.674805	7964.959961
783.500977	7886.451660
782.327148	7984.754883
781.153320	7919.052734
779.979492	8036.461914
778.804688	7951.621094
777.629883	7922.143555
776.454102	7807.582520
775.279297	7939.795898
774.103516	7738.098145
772.927734	7959.555664
771.750977	8015.125000
770.575195	7985.669434
769.398438	7971.098145
768.220703	7843.959961
767.043945	7914.367188
765.866211	8001.726074
764.688477	7836.460449
763.510742	7983.213867
762.332031	7951.686035
761.153320	7795.027832
759.974609	7797.486328
758.794922	7882.627930
757.616211	7851.149902
756.436523	7813.327637
755.255859	7902.643066
754.076172	8072.407227
752.895508	7975.263184
751.714844	7785.005371
750.533203	7806.507324
749.352539	7872.439941
748.170898	8003.930176
746.988281	7930.177734
745.806641	7957.968262
744.624023	7810.257813
743.441406	7825.379395
742.258789	7840.492676
741.075195	7730.940430
739.891602	7877.034668
738.708008	7877.340820
737.523438	7778.410645
736.339844	7894.838867
735.155273	7738.966797
733.969727	7743.521973
732.785156	7855.657227
731.599609	7891.816895
730.414063	7908.982910
729.227539	7873.439941
728.041992	7747.289063
726.855469	7804.508301
725.667969	7718.454590
724.481445	7809.350586
723.293945	7695.960938
722.106445	7675.248047
720.918945	7709.264160
719.730469	7692.765137
718.541992	7676.272461
717.353516	7661.890137
716.164063	7687.465332
714.975586	7654.165527
713.786133	7702.848633
712.595703	7675.863281
711.406250	7590.068848
710.215820	7642.931641
709.025391	7481.589844
707.833984	7563.842285
706.642578	7646.056641
705.451172	7608.626465
704.259766	7625.757813
703.068359	7695.314941
701.875977	7529.986328
700.683594	7643.557129
699.490234	7748.691406
698.297852	7744.813477
697.104492	7766.075684
695.910156	7714.020508
694.716797	7674.552734
693.522461	7718.843750
692.328125	7566.367676
691.132813	7784.344727
689.938477	7684.224609
688.743164	7644.806152
687.547852	7661.865723
686.351563	7858.711426
685.155273	7687.598633
683.958984	7681.647949
682.762695	7615.113281
681.565430	7813.875000
680.368164	7701.397949
679.170898	7776.870117
677.973633	7795.950195
676.775391	7775.372070
675.577148	7658.832520
674.378906	7748.843262
673.179688	7742.885742
671.980469	7718.166992
670.781250	7693.458984
669.581055	7906.326172
668.381836	7814.915527
667.181641	7865.186523
665.980469	7815.475098
664.780273	7892.787598
663.579102	7928.433105
662.377930	7733.068848
661.175781	7976.787598
659.973633	7848.062988
658.771484	7877.445313
657.569336	7969.186035
656.367188	7771.956543
655.164063	7921.866211
653.960938	7930.425293
652.756836	7860.046875
651.552734	7976.603516
650.348633	7929.084473
649.144531	8047.645996
647.939453	7846.562012
646.735352	8102.022461
645.529297	8122.967773
644.324219	8129.386230
643.118164	7969.933594
641.912109	7887.250000
640.706055	8024.276855
639.499023	8007.918945
638.292969	8024.710938
637.084961	7954.514648
635.877930	8002.367188
634.669922	7921.857422
633.461914	7884.843750
632.253906	7858.192383
631.044922	7792.250000
629.836914	7918.668457
628.626953	7858.944336
627.417969	7883.999023
626.208008	7698.244141
624.998047	7880.352051
623.788086	7919.842773
622.577148	7810.619629
621.366211	7827.394531
620.155273	7641.865234
618.944336	7584.374512
617.732422	7768.316406
616.520508	7805.711914
615.308594	7789.468750
614.095703	7880.449707
612.882813	7800.292480
611.669922	7763.451660
610.457031	7699.840820
609.243164	7671.278809
608.029297	7745.703125
606.815430	7628.605469
605.600586	7717.414063
604.385742	7639.479004
603.170898	7693.264160
601.955078	7677.082520
600.740234	7623.888672
599.524414	7652.964844
598.307617	7665.581543
597.091797	7542.549805
595.875000	7462.723145
594.658203	7578.085449
593.440430	7409.975098
592.222656	7469.856445
591.004883	7535.868164
589.787109	7546.435547
588.568359	7579.568359
587.349609	7666.020996
586.130859	7594.513672
584.912109	7492.281738
583.692383	7529.494141
582.472656	7431.423340
581.251953	7450.190430
580.032227	7489.434082
578.811523	7461.072754
577.589844	7463.437988
576.369141	7498.555176
575.147461	7455.883789
573.925781	7517.585938
572.703125	7442.197754
571.481445	7426.155762
570.258789	7567.564941
569.035156	7531.057129
567.812500	7568.142090
566.588867	7513.260742
565.365234	7674.945313
564.140625	7509.775391
562.916992	7371.226563
561.692383	7559.368652
560.466797	7567.819336
559.242188	7543.618652
558.016602	7511.268555
556.791016	7429.984375
555.564453	7422.143066
554.337891	7557.005859
553.111328	7502.261230
551.884766	7541.272949
550.657227	7470.259766
549.429688	7531.663574
548.202148	7556.386230
546.974609	7603.490234
545.746094	7471.468750
544.517578	7536.882813
543.288086	7461.897949
542.058594	7622.874023
540.829102	7606.871094
539.599609	7521.756348
538.370117	7556.594238
537.139648	7556.872070
535.909180	7396.661621
534.677734	7502.588379
533.446289	7506.938477
532.214844	7488.955078
530.983398	7466.920410
529.750977	7402.283691
528.519531	7637.918945
527.286133	7526.623535
526.053711	7530.958984
524.820313	7482.583984
523.586914	7586.239258
522.353516	7673.635254
521.119141	7684.008789
519.884766	7552.601074
518.650391	7617.668945
517.415039	7504.556641
516.179688	7527.102051
514.944336	7499.048828
513.708984	7398.179688
