#Wave		#Intensity
1585.210938	2145.477783
1584.209961	2160.463623
1583.208984	2137.541992
1582.208008	2154.575195
1581.206055	2131.664063
1580.204102	2078.815430
1579.202148	2173.197021
1578.200195	2185.219482
1577.198242	2184.766846
1576.195313	2114.496094
1575.192383	2221.256836
1574.189453	2155.992188
1573.186523	2270.175781
1572.182617	2199.945313
1571.178711	2179.562256
1570.174805	2216.467041
1569.170898	2233.437256
1568.166992	2098.548096
1567.162109	2172.779297
1566.158203	2139.980957
1565.153320	2139.537842
1564.147461	2171.429932
1563.142578	2106.323242
1562.136719	2215.283936
1561.130859	2167.595459
1560.125000	2124.897217
1559.119141	2149.304688
1558.113281	2158.796387
1557.106445	2180.702881
1556.099609	2195.150635
1555.092773	2097.871338
1554.084961	2097.436768
1553.078125	2159.044189
1552.070313	2056.870117
1551.062500	2088.692383
1550.054688	2080.819580
1549.045898	2080.388916
1548.038086	2072.520752
1547.029297	2099.355957
1546.020508	2007.233032
1545.011719	2048.935791
1544.001953	2046.034546
1542.992188	2045.610962
1541.982422	2064.995605
1540.972656	2047.239502
1539.962891	2069.090576
1538.952148	2038.968384
1537.942383	2038.546265
1536.931641	2075.226074
1535.919922	2020.391724
1534.909180	2049.642578
1533.897461	2031.914673
1532.886719	1947.466309
1531.874023	2038.486084
1530.862305	2047.945557
1529.850586	2030.232422
1528.837891	2039.689453
1527.825195	1975.077148
1526.812500	1994.414917
1525.799805	1989.066284
1524.786133	2087.346924
1523.772461	1983.309082
1522.758789	2069.218506
1521.745117	1965.227295
1520.731445	1957.424561
1519.716797	2097.510498
1518.702148	2067.505127
1517.687500	2067.077148
1516.672852	1953.340454
1515.657227	2066.220947
1514.642578	2060.868652
1513.626953	2077.673828
1512.610352	2096.933105
1511.594727	2103.880859
1510.579102	2037.020386
1509.562500	2152.202637
1508.545898	2050.931641
1507.529297	1996.416748
1506.511719	2072.205322
1505.494141	2025.081177
1504.477539	2103.289307
1503.458984	2068.461182
1502.441406	2136.803467
1501.423828	2138.816406
1500.405273	2059.810791
1499.386719	2086.384277
1498.368164	2159.573730
1497.348633	2085.519775
1496.330078	2094.899902
1495.310547	2079.750488
1494.291016	2106.291992
1493.271484	2064.179688
1492.250977	2100.517090
1491.231445	2021.665649
1490.210938	1967.346802
1489.190430	2028.176270
1488.168945	2069.388672
1487.148438	2054.268799
1486.126953	2127.281982
1485.105469	2043.627441
1484.083984	2089.695801
1483.061523	2123.512939
1482.040039	2132.856445
1481.017578	2122.632568
1479.995117	2092.853516
1478.971680	2148.641113
1477.949219	2199.517578
1476.925781	2164.854004
1475.902344	2183.948242
1474.878906	2225.015869
1473.855469	2190.368164
1472.831055	2231.417236
1471.806641	2272.449219
1470.782227	2228.051270
1469.757813	2178.791992
1468.733398	2156.385986
1467.708008	2187.643555
1466.682617	2253.024902
1465.657227	2286.687012
1464.631836	2261.839355
1463.605469	2229.691406
1462.579102	2319.372314
1461.552734	2272.610596
1460.526367	2259.962402
1459.500000	2274.102295
1458.472656	2280.933105
1457.445313	2290.194824
1456.417969	2194.821289
1455.390625	2191.932861
1454.362305	2286.336426
1453.334961	2086.456787
1452.306641	2173.549072
1451.277344	2270.328125
1450.249023	2167.786133
1449.219727	2245.087891
1448.191406	2288.347900
1447.162109	2224.725342
1446.131836	2207.265625
1445.102539	2243.223145
1444.072266	2228.193604
1443.041992	2293.252197
1442.011719	2219.989258
1440.981445	2243.785156
1439.950195	2189.964355
1438.918945	2170.111572
1437.887695	2189.054199
1436.856445	2159.514648
1435.825195	2248.724121
1434.792969	2177.998535
1433.760742	2133.946289
1432.728516	2150.454590
1431.696289	2120.953125
1430.663086	2081.781494
1429.629883	2052.306396
1428.596680	2076.076172
1427.563477	2082.901855
1426.530273	2072.793945
1425.496094	2065.108398
1424.461914	2146.879150
1423.427734	2073.917725
1422.393555	2061.403076
1421.358398	2116.545410
1420.323242	2108.858154
1419.288086	2168.797607
1418.252930	2120.053467
1417.217773	2136.511230
1416.181641	2179.511719
1415.145508	2130.795410
1414.109375	2055.560303
1413.073242	2137.144531
1412.036133	2170.462158
1411.000000	2225.466064
1409.962891	2138.220215
1408.924805	2260.690674
1407.887695	2318.050537
1406.849609	2295.885498
1405.812500	2305.041748
1404.773438	2362.355957
1403.735352	2446.129883
1402.697266	2472.098389
1401.658203	2517.308594
1400.619141	2490.316650
1399.580078	2424.846191
1398.540039	2534.975098
1397.500977	2404.598389
1396.460938	2490.644287
1395.420898	2405.999023
1394.380859	2379.063232
1393.339844	2349.735840
1392.298828	2301.203613
1391.257813	2288.715576
1390.216797	2235.414063
1389.175781	2160.529297
1388.133789	2184.079346
1387.091797	2229.215576
1386.049805	2231.149414
1385.007813	2089.166992
1383.964844	2134.294434
1382.922852	2133.848877
1381.879883	2202.918457
1380.835938	2137.750732
1379.792969	2252.316162
1378.749023	2146.439941
1377.706055	2229.819336
1376.661133	2217.380615
1375.617188	2188.188232
1374.573242	2182.943848
1373.528320	2235.135254
1372.483398	2246.630859
1371.438477	2222.240479
1370.392578	2190.685303
1369.347656	2216.529053
1368.301758	2223.237305
1367.255859	2246.673096
1366.208984	2262.930176
1365.163086	2274.402100
1364.116211	2309.755127
1363.069336	2263.898193
1362.022461	2330.276611
1360.974609	2267.724854
1359.927734	2226.678467
1358.879883	2230.984375
1357.832031	2230.517334
1356.783203	2208.584473
1355.735352	2251.044434
1354.686523	2303.022705
1353.637695	2288.239014
1352.588867	2333.038086
1351.539063	2301.575684
1350.490234	2303.475586
1349.440430	2453.032715
1348.390625	2435.850830
1347.339844	2473.429688
1346.290039	2537.173584
1345.239258	2548.539551
1344.188477	2669.338623
1343.137695	2716.350586
1342.085938	2796.635986
1341.034180	2907.796387
1339.982422	2816.856689
1338.930664	2970.744385
1337.878906	3046.156006
1336.826172	3017.009521
1335.773438	3047.252441
1334.720703	3148.720703
1333.667969	3072.088379
1332.614258	3135.530518
1331.561523	3153.856934
1330.507813	3079.643555
1329.453125	3121.694580
1328.399414	3073.606689
1327.344727	3063.476318
1326.290039	3110.244873
1325.235352	3109.591064
1324.180664	3104.198242
1323.125000	3155.666260
1322.070313	3005.779785
1321.014648	3000.411377
1319.958008	3108.691162
1318.902344	2868.957275
1317.845703	2927.519531
1316.789063	2808.597168
1315.732422	2796.177979
1314.675781	2776.668457
1313.618164	2825.741211
1312.560547	2621.830566
1311.502930	2555.096436
1310.445313	2457.669678
1309.386719	2530.394043
1308.329102	2444.823730
1307.270508	2406.522217
1306.210938	2394.209473
1305.152344	2280.393555
1304.092773	2308.234863
1303.033203	2236.958496
1301.973633	2241.205322
1300.914063	2219.504639
1299.853516	2197.813232
1298.792969	2138.407959
1297.732422	2161.528564
1296.671875	2111.582520
1295.611328	2151.191895
1294.549805	2115.402832
1293.488281	2067.852783
1292.426758	2039.159912
1291.364258	2081.104980
1290.302734	2045.360107
1289.240234	1995.511108
1288.177734	2035.085449
1287.114258	1982.907227
1286.051758	1933.102417
1284.988281	2038.498413
1283.924805	1979.299805
1282.861328	1971.830811
1281.796875	2023.107910
1280.732422	2097.855225
1279.667969	2066.878174
1278.603516	1981.904907
1277.539063	2030.788086
1276.473633	2089.039307
1275.408203	2032.275635
1274.342773	2048.269287
1273.277344	2090.059326
1272.210938	2068.509521
1271.145508	2072.761230
1270.079102	2105.141846
1269.011719	2064.852295
1267.945313	2040.982300
1266.877930	1984.323486
1265.810547	2012.010376
1264.743164	1953.039673
1263.674805	2074.372314
1262.607422	2031.798462
1261.539063	2026.687256
1260.470703	1977.121948
1259.401367	1932.256104
1258.333008	2076.851807
1257.263672	1973.525879
1256.194336	1940.377930
1255.125000	2012.422852
1254.054688	2009.658936
1252.985352	2044.277100
1251.915039	1985.447632
1250.843750	2006.043945
1249.773438	2061.653809
1248.702148	2061.216064
1247.630859	2030.438232
1246.559570	2016.006836
1245.488281	2090.229492
1244.416016	1994.158936
1243.343750	2047.367676
1242.271484	2004.968018
1241.199219	1978.902222
1240.125977	2083.347900
1239.053711	1999.029419
1237.980469	1954.345947
1236.906250	2065.716309
1235.833008	2000.082031
1234.758789	1988.016968
1233.684570	1994.575928
1232.610352	1961.574707
1231.536133	2089.109131
1230.460938	2002.605713
1229.385742	1990.552124
1228.310547	2034.301392
1227.235352	1987.379517
1226.159180	2054.349854
1225.083008	1963.298218
1224.006836	1897.837524
1222.930664	1936.914307
1221.853516	1982.940063
1220.777344	1984.838623
1219.700195	1940.317139
1218.622070	2004.875977
1217.544922	1967.328735
1216.466797	1925.158447
1215.388672	1917.790527
1214.310547	1880.285400
1213.232422	1900.745728
1212.153320	1911.927246
1211.074219	1939.322754
1209.995117	1927.325928
1208.916016	1889.858032
1207.835938	1894.085205
1206.755859	1921.460449
1205.675781	1844.670654
1204.595703	1883.614624
1203.514648	1839.254761
1202.434570	1824.983154
1201.353516	1803.779785
1200.271484	1775.649292
1199.190430	1858.485107
1198.108398	1825.732544
1197.026367	1866.931763
1195.944336	1790.299927
1194.862305	1903.085449
1193.779297	1810.314819
1192.696289	1779.915405
1191.613281	1901.862549
1190.530273	1852.995605
1189.446289	1873.362305
1188.362305	1799.149414
1187.278320	1821.824707
1186.194336	1842.184570
1185.109375	1832.568970
1184.024414	1827.566650
1182.939453	1857.128174
1181.854492	1845.211426
1180.768555	1807.965210
1179.683594	1819.090210
1178.597656	1811.793213
1177.510742	1825.214111
1176.424805	1873.146484
1175.337891	1803.723999
1174.250977	1805.636719
1173.164063	1812.147705
1172.077148	1814.057373
1170.989258	1843.550415
1169.901367	1852.346802
1168.813477	1789.910400
1167.724609	1796.417114
1166.636719	1814.404297
1165.547852	1853.049683
1164.458984	1868.720947
1163.369141	1778.804688
1162.280273	1803.663940
1161.190430	1807.864014
1160.100586	1869.405884
1159.010742	1852.950439
1157.919922	1728.742188
1156.829102	1859.028931
1155.738281	1856.336548
1154.647461	1752.828857
1153.555664	1823.465332
1152.464844	1763.524536
1151.373047	1804.360596
1150.280273	1806.260620
1149.188477	1824.181396
1148.095703	1821.499512
1147.002930	1811.955078
1145.910156	1825.287964
1144.817383	1788.304565
1143.723633	1778.772949
1142.629883	1872.108521
1141.536133	1711.729492
1140.441406	1704.505005
1139.347656	1832.061157
1138.252930	1838.516846
1137.158203	1762.767944
1136.062500	1808.044556
1134.967773	1821.347900
1133.872070	1768.470337
1132.776367	1790.901733
1131.679688	1840.694336
1130.583984	1785.565918
1129.487305	1853.577148
1128.390625	1864.573120
1127.292969	1814.032715
1126.196289	1804.526123
1125.098633	1861.083984
1124.000977	1853.848511
1122.903320	1764.645264
1121.804688	1807.515747
1120.706055	1854.919434
1119.607422	1897.751343
1118.508789	1908.714844
1117.409180	1796.850708
1116.310547	1857.858887
1115.210938	1896.105469
1114.110352	1954.792358
1113.010742	1838.469604
1111.910156	1831.254395
1110.809570	1810.412964
1109.708984	1871.338013
1108.607422	1852.767090
1107.506836	1838.744385
1106.405273	1888.275146
1105.303711	1858.366943
1104.201172	1817.128662
1103.098633	1807.661255
1101.996094	1755.113647
1100.893555	1754.732056
1099.791016	1824.614990
1098.687500	1849.145264
1097.583984	1778.508789
1096.480469	1753.205322
1095.376953	1716.589722
1094.272461	1840.743530
1093.167969	1804.124390
1092.063477	1799.205078
1090.958008	1753.560059
1089.853516	1769.013184
1088.748047	1784.459351
1087.642578	1772.764526
1086.536133	1781.420776
1085.430664	1853.358521
1084.324219	1706.073853
1083.217773	1825.439697
1082.110352	1759.538818
1081.003906	1781.737061
1079.896484	1709.100952
1078.789063	1762.901489
1077.680664	1742.205933
1076.573242	1793.719238
1075.464844	1782.048706
1074.356445	1718.512085
1073.247070	1722.646118
1072.138672	1762.846802
1071.029297	1735.416016
1069.919922	1723.770142
1068.809570	1658.062012
1067.700195	1745.539551
1066.589844	1745.157715
1065.479492	1713.257446
1064.368164	1721.885864
1063.257813	1802.521240
1062.146484	1734.631348
1061.035156	1833.223145
1059.922852	1722.627563
1058.811523	1728.995361
1057.699219	1717.377197
1056.586914	1829.370117
1055.473633	1745.834351
1054.361328	1783.640503
1053.248047	1763.036377
1052.134766	1787.349365
1051.021484	1791.447266
1049.907227	1748.410156
1048.792969	1745.782715
1047.678711	1713.991455
1046.564453	1785.389771
1045.449219	1800.695068
1044.333984	1818.235474
1043.218750	1811.111816
1042.103516	1795.027222
1040.987305	1810.316406
1039.871094	1794.238647
1038.754883	1890.143188
1037.638672	1822.557373
1036.521484	1826.633789
1035.404297	1781.471558
1034.287109	1872.818848
1033.169922	1892.540283
1032.051758	1851.866089
1030.933594	1833.570068
1029.815430	1875.642456
1028.697266	1819.352661
1027.578125	1763.087524
1026.458984	1890.042603
1025.339844	1784.647217
1024.220703	1817.750732
1023.100586	1788.326172
1021.980469	1877.217163
1020.860352	1858.950439
1019.740234	1856.309448
1018.619141	1864.822876
1017.498047	1871.102051
1016.376953	1779.273193
1015.255859	1798.943237
1014.133789	1787.402954
1013.011719	1889.505249
1011.889648	1822.257202
1010.767578	1817.400513
1009.644531	1741.291016
1008.521484	1752.037598
1007.398438	1829.551147
1006.274414	1795.768433
1005.151367	1793.146851
1004.027344	1808.320435
1002.902344	1832.382080
1001.778320	1814.190918
1000.653320	1884.918701
999.528320	1804.499390
998.403320	1784.104126
997.278320	1750.389771
996.152344	1821.068604
995.026367	1827.326538
993.900391	1744.788208
992.773438	1771.034058
991.646484	1803.924561
990.519531	1741.411011
989.392578	1667.835693
988.265625	1716.248413
987.137695	1702.566772
986.009766	1744.300903
984.881836	1759.425537
983.752930	1710.296387
982.624023	1732.066284
981.495117	1773.756226
980.366211	1749.009521
979.236328	1624.668457
978.106445	1712.826050
976.976563	1696.958618
975.846680	1758.517090
974.715820	1698.416748
973.585938	1759.947266
972.454102	1713.135864
971.323242	1838.725586
970.191406	1712.374634
969.060547	1760.592651
967.927734	1810.997559
966.795898	1841.507568
965.663086	1863.173584
964.530273	1946.627563
963.397461	1977.086548
962.264648	1950.173706
961.130859	1980.618042
959.997070	2141.149170
958.863281	2059.102295
957.729492	2129.175537
956.594727	2060.388916
955.459961	2110.602295
954.325195	2035.242188
953.189453	2014.969360
952.053711	2003.512085
950.917969	2007.467896
949.782227	1868.377563
948.646484	1843.758911
947.509766	1876.343140
946.373047	1774.761108
945.235352	1769.967773
944.098633	1802.546265
942.960938	1742.805176
941.823242	1779.769409
940.685547	1774.978516
939.546875	1746.030884
938.408203	1745.640869
937.269531	1760.618042
936.129883	1760.224731
934.991211	1700.585205
933.851563	1730.918579
932.711914	1794.138062
931.571289	1774.001587
930.431641	1767.027954
929.291016	1766.632813
928.149414	1735.558594
927.008789	1695.734619
925.867188	1758.876343
924.725586	1747.533203
923.583984	1734.005737
922.441406	1707.350586
921.299805	1737.606323
920.157227	1654.075806
919.013672	1739.015503
917.871094	1701.447754
916.727539	1768.846924
915.583984	1722.545166
914.439453	1717.788086
913.295898	1809.172729
912.151367	1758.523560
911.006836	1760.313232
909.861328	1770.836060
908.716797	1827.197632
907.571289	1726.390747
906.424805	1808.921387
905.279297	1751.794800
904.132813	1757.944824
902.986328	1718.299561
901.839844	1822.558228
900.692383	1756.760864
899.545898	1769.440918
898.398438	1716.756470
897.250000	1688.054932
896.102539	1805.268433
894.954102	1748.256592
893.805664	1754.393555
892.656250	1812.755981
891.507813	1729.672119
890.358398	1729.283081
889.208984	1770.213623
888.058594	1724.156616
886.908203	1704.205078
885.758789	1677.742676
884.607422	1738.202026
883.457031	1650.920166
882.305664	1711.358032
881.154297	1732.685547
880.002930	1691.050049
878.850586	1668.966064
877.698242	1731.514771
876.545898	1696.415283
875.393555	1635.305298
874.240234	1656.620239
873.086914	1723.450439
871.933594	1673.212158
870.780273	1698.837402
869.625977	1700.620605
868.471680	1672.080078
867.317383	1710.680298
866.162109	1716.788940
865.007813	1712.072632
863.852539	1620.800049
862.696289	1637.741821
861.541016	1630.883057
860.384766	1602.402344
859.228516	1632.308350
858.072266	1597.355347
856.915039	1661.824951
855.757813	1730.586426
854.600586	1648.113525
853.442383	1684.453369
852.285156	1653.845581
851.126953	1672.898682
849.968750	1687.626953
848.809570	1706.663574
847.650391	1697.649048
846.491211	1651.975708
845.332031	1694.724487
844.171875	1674.940063
843.012695	1683.181519
841.851563	1706.501709
840.691406	1688.881836
839.530273	1720.804688
838.369141	1668.737793
837.208008	1689.886963
836.046875	1659.372681
834.884766	1676.210571
833.722656	1579.024048
832.560547	1677.601440
831.397461	1614.862793
830.234375	1612.346802
829.071289	1719.446533
827.908203	1665.335938
826.744141	1673.551392
825.580078	1604.440552
824.416016	1601.929077
823.251953	1638.062256
822.086914	1579.738037
820.921875	1611.567871
819.756836	1581.166138
818.590820	1666.603882
817.425781	1653.358643
816.259766	1650.839111
815.092773	1571.156006
813.926758	1617.944336
812.759766	1664.711182
811.592773	1617.208862
810.424805	1640.397827
809.257813	1603.627319
808.089844	1680.322021
806.920898	1607.178101
805.752930	1656.022461
804.583984	1651.367554
803.415039	1665.961792
802.246094	1633.511108
801.076172	1656.653076
799.906250	1619.944702
798.736328	1587.526245
797.566406	1572.211670
796.395508	1655.144775
795.224609	1612.064087
794.053711	1622.370239
792.881836	1636.940063
791.710938	1653.636841
790.538086	1668.192749
789.366211	1601.697144
788.194336	1669.564453
787.021484	1566.858398
785.848633	1594.207886
784.674805	1600.236694
783.500977	1650.999512
782.327148	1605.896240
781.153320	1650.246216
779.979492	1596.648071
778.804688	1615.439087
777.629883	1589.535645
776.454102	1631.720947
775.279297	1627.094482
774.103516	1645.860962
772.927734	1605.092041
771.750977	1655.736572
770.575195	1653.233276
769.398438	1637.984131
768.220703	1663.098022
767.043945	1601.135742
765.866211	1624.123169
764.688477	1623.751953
763.510742	1608.526245
762.332031	1701.508057
761.153320	1690.513550
759.974609	1594.699463
758.794922	1679.139648
757.616211	1625.764526
756.436523	1672.014038
755.255859	1680.106079
754.076172	1690.312500
752.895508	1692.043335
751.714844	1721.297119
750.533203	1761.120972
749.352539	1775.531372
748.170898	1775.124878
746.988281	1857.214111
745.806641	1907.543823
744.624023	2042.422607
743.441406	2177.239502
742.258789	2333.127686
741.075195	2442.461670
739.891602	2868.601074
738.708008	3172.055176
737.523438	3663.285156
736.339844	4095.183838
735.155273	4636.626465
733.969727	4730.511230
732.785156	4839.118652
731.599609	4783.174805
730.414063	4444.717773
729.227539	4182.303711
728.041992	3688.181641
726.855469	3375.491943
725.667969	2911.272949
724.481445	2653.662842
723.293945	2484.605713
722.106445	2275.628906
720.918945	2262.478516
719.730469	2125.189453
718.541992	2053.176758
717.353516	1955.958740
716.164063	1928.174438
714.975586	1839.438354
713.786133	1851.626099
712.595703	1725.125610
711.406250	1762.542969
710.215820	1661.324219
709.025391	1702.938354
707.833984	1647.964600
706.642578	1668.573975
705.451172	1668.190308
704.259766	1680.393921
703.068359	1677.910034
701.875977	1612.520020
700.683594	1589.088379
699.490234	1601.298462
698.297852	1571.593628
697.104492	1592.181641
695.910156	1596.004272
694.716797	1666.833252
693.522461	1681.104370
692.328125	1611.646729
691.132813	1636.386475
689.938477	1648.562134
688.743164	1585.434448
687.547852	1589.251587
686.351563	1659.967285
685.155273	1565.527832
683.958984	1619.498657
682.762695	1644.195923
681.565430	1591.599243
680.368164	1618.379517
679.170898	1611.743286
677.973633	1673.989868
676.775391	1629.781372
675.577148	1677.390747
674.378906	1616.515137
673.179688	1657.849243
671.980469	1594.921021
670.781250	1700.856812
669.581055	1665.038208
668.381836	1672.987793
667.181641	1666.353027
665.980469	1763.844238
664.780273	1757.191406
663.579102	1700.585449
662.377930	1756.380493
661.175781	1776.780640
659.973633	1772.210327
658.771484	1753.085083
657.569336	1767.234131
656.367188	1783.455078
655.164063	1780.965210
653.960938	1805.485840
652.756836	1748.985107
651.552734	1750.657837
650.348633	1739.872437
649.144531	1843.257568
647.939453	1757.746094
646.735352	1823.733032
645.529297	1802.568726
644.324219	1756.528076
643.118164	1791.369019
641.912109	1797.173706
640.706055	1761.527710
639.499023	1765.264404
638.292969	1818.713501
637.084961	1799.654541
635.877930	1807.520386
634.669922	1811.242554
633.461914	1783.920044
632.253906	1777.300415
631.044922	1799.643555
629.836914	1811.635864
628.626953	1794.676025
627.417969	1814.932129
626.208008	1814.512329
624.998047	1843.018921
623.788086	1846.723877
622.577148	1807.057617
621.366211	1804.574829
620.155273	1835.120972
618.944336	1781.038208
617.732422	1737.296753
616.520508	1809.093384
615.308594	1744.742065
614.095703	1748.461914
612.882813	1723.320435
611.669922	1735.286987
610.457031	1660.709595
609.243164	1685.044556
608.029297	1649.643311
606.815430	1704.854370
605.600586	1696.225464
604.385742	1627.916992
603.170898	1637.827881
601.955078	1608.649170
600.740234	1600.050049
599.524414	1599.679443
598.307617	1636.310791
597.091797	1611.269409
595.875000	1586.239624
594.658203	1575.600830
593.440430	1628.633667
592.222656	1597.456909
591.004883	1590.928345
589.787109	1582.350220
588.568359	1664.057983
587.349609	1620.593140
586.130859	1564.843018
584.912109	1617.791626
583.692383	1629.716309
582.472656	1653.932251
581.251953	1635.107788
580.032227	1630.631714
578.811523	1638.445801
577.589844	1601.209473
576.369141	1631.544800
575.147461	1602.513672
573.925781	1626.695923
572.703125	1609.953247
571.481445	1668.890869
570.258789	1652.145996
569.035156	1694.692261
567.812500	1692.255371
566.588867	1630.563477
565.365234	1728.241577
564.140625	1797.281128
562.916992	1680.476318
561.692383	1671.920776
560.466797	1687.860474
559.242188	1671.145142
558.016602	1701.357422
556.791016	1664.251221
555.564453	1725.036621
554.337891	1724.636353
553.111328	1695.702637
551.884766	1738.099487
550.657227	1650.098267
549.429688	1720.999390
548.202148	1714.491333
546.974609	1650.985474
545.746094	1776.788940
544.517578	1729.576294
543.288086	1765.792603
542.058594	1775.552002
540.829102	1767.006470
539.599609	1780.826660
538.370117	1835.288940
537.139648	1784.063843
535.909180	1777.555298
534.677734	1795.421875
533.446289	1786.882813
532.214844	1796.618408
530.983398	1712.987427
529.750977	1700.415039
528.519531	1752.765503
527.286133	1736.133057
526.053711	1634.343872
524.820313	1700.863647
523.586914	1698.442017
522.353516	1734.521240
521.119141	1697.653442
519.884766	1689.157715
518.650391	1731.288452
517.415039	1694.446777
516.179688	1671.789795
514.944336	1693.659912
513.708984	1705.404785
