#Wave		#Intensity
1585.210938	6551.325195
1584.209961	6503.869629
1583.208984	6505.019531
1582.208008	6665.951660
1581.206055	6607.160156
1580.204102	6555.879883
1579.202148	6636.858887
1578.200195	6715.309082
1577.198242	6634.109375
1576.195313	6572.891113
1575.192383	6606.431152
1574.189453	6620.017578
1573.186523	6623.630371
1572.182617	6644.681641
1571.178711	6573.559570
1570.174805	6549.784180
1569.170898	6498.629883
1568.166992	6472.390137
1567.162109	6709.980957
1566.158203	6544.360352
1565.153320	6677.348145
1564.147461	6484.441406
1563.142578	6567.650391
1562.136719	6407.167480
1561.130859	6525.158203
1560.125000	6347.353516
1559.119141	6393.249512
1558.113281	6635.380371
1557.106445	6437.792480
1556.099609	6471.224609
1555.092773	6621.328613
1554.084961	6428.830078
1553.078125	6563.990234
1552.070313	6567.593750
1551.062500	6370.263672
1550.054688	6435.908203
1549.045898	6392.422363
1548.038086	6552.239746
1547.029297	6533.533203
1546.020508	6420.667480
1545.011719	6300.415527
1544.001953	6403.146973
1542.992188	6377.055664
1541.982422	6400.495605
1540.972656	6448.680664
1539.962891	6434.970703
1538.952148	6396.520996
1537.942383	6511.473145
1536.931641	6418.607422
1535.919922	6409.859375
1534.909180	6571.712402
1533.897461	6619.790527
1532.886719	6517.092285
1531.874023	6552.806152
1530.862305	6383.463379
1529.850586	6606.899902
1528.837891	6464.778809
1527.825195	6539.974121
1526.812500	6496.658691
1525.799805	6411.407227
1524.786133	6543.314453
1523.772461	6430.953613
1522.758789	6486.346680
1521.745117	6428.290527
1520.731445	6720.326660
1519.716797	6364.009766
1518.702148	6547.510742
1517.687500	6422.967773
1516.672852	6547.262207
1515.657227	6437.546875
1514.642578	6453.449219
1513.626953	6513.655273
1512.610352	6362.173340
1511.594727	6444.519043
1510.579102	6497.308105
1509.562500	6363.140625
1508.545898	6344.608398
1507.529297	6362.963379
1506.511719	6575.502930
1505.494141	6301.344727
1504.477539	6373.752930
1503.458984	6478.066895
1502.441406	6503.741699
1501.423828	6514.672363
1500.405273	6501.047363
1499.386719	6546.337402
1498.368164	6486.083496
1497.348633	6364.515625
1496.330078	6404.898926
1495.310547	6408.476563
1494.291016	6399.792969
1493.271484	6339.630371
1492.250977	6519.691406
1491.231445	6341.903809
1490.210938	6423.889648
1489.190430	6393.164063
1488.168945	6386.941406
1487.148438	6253.399902
1486.126953	6359.814453
1485.105469	6451.499512
1484.083984	6425.692383
1483.061523	6360.752930
1482.040039	6383.893555
1481.017578	6380.125000
1479.995117	6452.149902
1478.971680	6526.588867
1477.949219	6266.181152
1476.925781	6431.033203
1475.902344	6437.028320
1474.878906	6421.039063
1473.855469	6480.754395
1472.831055	6452.555176
1471.806641	6387.754395
1470.782227	6476.723145
1469.757813	6499.778320
1468.733398	6442.324707
1467.708008	6482.448730
1466.682617	6524.994141
1465.657227	6260.354004
1464.631836	6395.545410
1463.605469	6528.243652
1462.579102	6383.146484
1461.552734	6369.642578
1460.526367	6587.498047
1459.500000	6517.956543
1458.472656	6489.826660
1457.445313	6578.529785
1456.417969	6484.699219
1455.390625	6631.752930
1454.362305	6610.917480
1453.334961	6451.480469
1452.306641	6464.728516
1451.277344	6635.969727
1450.249023	6440.171387
1449.219727	6502.007324
1448.191406	6454.501465
1447.162109	6501.735840
1446.131836	6624.225098
1445.102539	6625.276855
1444.072266	6730.698242
1443.041992	6457.507324
1442.011719	6718.197266
1440.981445	6547.000977
1439.950195	6523.813965
1438.918945	6641.268555
1437.887695	6593.828613
1436.856445	6733.032715
1435.825195	6712.247559
1434.792969	6509.768555
1433.760742	6581.081055
1432.728516	6429.568359
1431.696289	6740.563965
1430.663086	6557.611328
1429.629883	6505.423828
1428.596680	6453.258301
1427.563477	6493.041504
1426.530273	6489.272461
1425.496094	6492.758789
1424.461914	6423.713867
1423.427734	6470.720215
1422.393555	6421.041016
1421.358398	6231.245117
1420.323242	6350.730469
1419.288086	6417.032715
1418.252930	6379.477539
1417.217773	6421.604004
1416.181641	6487.849121
1415.145508	6525.108398
1414.109375	6504.448730
1413.073242	6278.766602
1412.036133	6316.044922
1411.000000	6252.040527
1409.962891	6284.486816
1408.924805	6369.941895
1407.887695	6380.663086
1406.849609	6256.468750
1405.812500	6433.402344
1404.773438	6345.370117
1403.735352	6356.085449
1402.697266	6357.167969
1401.658203	6442.480469
1400.619141	6325.644531
1399.580078	6358.004395
1398.540039	6267.689941
1397.500977	6263.978516
1396.460938	6289.117188
1395.420898	6215.697754
1394.380859	6341.765137
1393.339844	6263.559570
1392.298828	6197.396484
1391.257813	6381.025879
1390.216797	6286.051758
1389.175781	6332.751465
1388.133789	6295.428711
1387.091797	6222.126953
1386.049805	6249.617188
1385.007813	6397.024902
1383.964844	6311.756348
1382.922852	6216.932617
1381.879883	6294.737793
1380.835938	6326.975098
1379.792969	6296.900879
1378.749023	6365.057129
1377.706055	6217.627441
1376.661133	6297.744141
1375.617188	6389.796875
1374.573242	6273.569824
1373.528320	6236.362305
1372.483398	6278.125488
1371.438477	6358.143555
1370.392578	6280.283691
1369.347656	6226.366699
1368.301758	6184.424805
1367.255859	6486.670898
1366.208984	6155.552734
1365.163086	6311.943848
1364.116211	6418.109375
1363.069336	6263.929199
1362.022461	6284.106934
1360.974609	6297.113770
1359.927734	6317.274902
1358.879883	6289.705566
1357.832031	6235.906250
1356.783203	6260.836426
1355.735352	6226.141113
1354.686523	6289.207031
1353.637695	6192.546387
1352.588867	6174.567871
1351.539063	6197.099609
1350.490234	6202.947754
1349.440430	6132.581543
1348.390625	6314.640137
1347.339844	6246.659668
1346.290039	6157.287109
1345.239258	6001.322754
1344.188477	6245.110352
1343.137695	6260.451172
1342.085938	6202.063477
1341.034180	6298.244141
1339.982422	6227.986816
1338.930664	6145.875977
1337.878906	6139.833984
1336.826172	6228.817871
1335.773438	5985.250488
1334.720703	6088.476563
1333.667969	6087.198242
1332.614258	6081.172852
1331.561523	6162.954102
1330.507813	6201.994141
1329.453125	6226.784668
1328.399414	6230.219727
1327.344727	6141.179199
1326.290039	6137.518066
1325.235352	6183.630371
1324.180664	6125.459961
1323.125000	6119.434082
1322.070313	6103.935547
1321.014648	6033.976563
1319.958008	6068.221680
1318.902344	6130.857910
1317.845703	6027.803223
1316.789063	6076.223633
1315.732422	6197.958008
1314.675781	6324.370605
1313.618164	6044.012207
1312.560547	6298.066895
1311.502930	6190.377441
1310.445313	6219.794434
1309.386719	6142.879883
1308.329102	6233.709961
1307.270508	6211.142090
1306.210938	6131.915039
1305.152344	6144.787109
1304.092773	6145.852051
1303.033203	6071.407227
1301.973633	6178.648926
1300.914063	6120.738281
1299.853516	6100.582520
1298.792969	6122.872559
1297.732422	6192.296387
1296.671875	6127.359863
1295.611328	6258.013184
1294.549805	6155.397949
1293.488281	6257.727051
1292.426758	6249.342285
1291.364258	6087.937988
1290.302734	6114.896973
1289.240234	6163.022949
1288.177734	6117.020020
1287.114258	5974.595703
1286.051758	6246.131348
1284.988281	6030.851563
1283.924805	6114.203125
1282.861328	6051.805176
1281.796875	6062.274414
1280.732422	6072.738770
1279.667969	6090.244629
1278.603516	6074.867188
1277.539063	6052.452637
1276.473633	6121.589355
1275.408203	6049.892090
1274.342773	6128.384277
1273.277344	5934.736328
1272.210938	6099.992676
1271.145508	6021.324707
1270.079102	5973.164551
1269.011719	5992.993164
1267.945313	5926.112793
1266.877930	6039.652832
1265.810547	6014.950684
1264.743164	6105.005371
1263.674805	5857.877441
1262.607422	6088.373047
1261.539063	5953.686035
1260.470703	5891.589355
1259.401367	5939.465332
1258.333008	6003.691895
1257.263672	5918.239258
1256.194336	6059.589844
1255.125000	6037.268555
1254.054688	5958.872070
1252.985352	5903.872070
1251.915039	6059.118652
1250.843750	5896.694824
1249.773438	5932.800293
1248.702148	5854.506836
1247.630859	5829.924805
1246.559570	5903.353516
1245.488281	5904.431641
1244.416016	5905.509277
1243.343750	6037.169434
1242.271484	5821.401367
1241.199219	5810.839844
1240.125977	5835.238281
1239.053711	5833.997070
1237.980469	5842.073730
1236.906250	5868.777344
1235.833008	5890.812012
1234.758789	5763.852539
1233.684570	5895.287109
1232.610352	5763.725586
1231.536133	5846.248535
1230.460938	5824.070313
1229.385742	5829.806152
1228.310547	5916.911133
1227.235352	5887.757324
1226.159180	5830.728027
1225.083008	5927.069336
1224.006836	5928.128906
1222.930664	5815.387695
1221.853516	5962.751953
1220.777344	5861.657715
1219.700195	5848.802734
1218.622070	5845.234375
1217.544922	5755.828613
1216.466797	5736.044434
1215.388672	5797.432129
1214.310547	5879.659668
1213.232422	5917.809570
1212.153320	5800.671387
1211.074219	5780.896484
1209.995117	5756.496582
1208.916016	5896.542480
1207.835938	5867.496094
1206.755859	5817.626953
1205.675781	5809.439453
1204.595703	5842.907715
1203.514648	5793.073730
1202.434570	5858.912598
1201.353516	5841.471680
1200.271484	5740.803711
1199.190430	5788.117676
1198.108398	5835.411133
1197.026367	5681.665039
1195.944336	5814.432129
1194.862305	5748.519043
1193.779297	5768.069336
1192.696289	5667.564453
1191.613281	5657.118164
1190.530273	5736.671387
1189.446289	5770.048340
1188.362305	5665.014160
1187.278320	5749.125488
1186.194336	5738.669922
1185.109375	5878.051270
1184.024414	5770.777832
1182.939453	5797.188965
1181.854492	5701.496094
1180.768555	5658.815918
1179.683594	5719.772461
1178.597656	5748.472168
1177.510742	5673.584961
1176.424805	5741.400879
1175.337891	5629.735840
1174.250977	5635.426270
1173.164063	5641.114746
1172.077148	5777.853027
1170.989258	5680.065918
1169.901367	5779.965332
1168.813477	5624.776367
1167.724609	5694.779785
1166.636719	5718.818848
1165.547852	5660.182617
1164.458984	5658.964844
1163.369141	5747.260742
1162.280273	5686.360352
1161.190430	5781.494141
1160.100586	5697.673828
1159.010742	5607.009766
1157.919922	5624.144043
1156.829102	5586.255859
1155.738281	5704.224121
1154.647461	5673.208008
1153.555664	5520.792969
1152.464844	5574.569824
1151.373047	5648.930664
1150.280273	5633.976563
1149.188477	5703.713867
1148.095703	5739.096191
1147.002930	5698.964844
1145.910156	5661.137207
1144.817383	5602.744141
1143.723633	5578.670898
1142.629883	5600.324707
1141.536133	5523.698242
1140.441406	5643.602539
1139.347656	5653.804688
1138.252930	5684.557129
1137.158203	5518.924805
1136.062500	5650.139160
1134.967773	5662.611816
1133.872070	5700.179199
1132.776367	5671.569336
1131.679688	5711.398438
1130.583984	5648.591309
1129.487305	5661.048340
1128.390625	5609.675293
1127.292969	5701.896973
1126.196289	5616.359863
1125.098633	5672.091797
1124.000977	5714.134766
1122.903320	5617.264160
1121.804688	5595.558594
1120.706055	5512.410645
1119.607422	5577.204590
1118.508789	5480.445801
1117.409180	5629.374023
1116.310547	5573.576660
1115.210938	5531.444336
1114.110352	5475.691895
1113.010742	5567.676758
1111.910156	5543.748047
1110.809570	5578.888672
1109.708984	5384.638672
1108.607422	5603.712402
1107.506836	5654.706543
1106.405273	5537.729980
1105.303711	5568.293457
1104.201172	5603.380371
1103.098633	5543.192383
1101.996094	5507.973145
1100.893555	5556.651367
1099.791016	5467.045410
1098.687500	5486.250977
1097.583984	5568.884766
1096.480469	5538.226074
1095.376953	5489.463379
1094.272461	5565.249023
1093.167969	5595.728027
1092.063477	5497.193848
1090.958008	5554.825684
1089.853516	5594.334473
1088.748047	5611.208496
1087.642578	5438.136230
1086.536133	5464.078613
1085.430664	5544.254395
1084.324219	5500.110840
1083.217773	5571.206055
1082.110352	5416.397949
1081.003906	5577.808105
1079.896484	5445.642578
1078.789063	5507.656250
1077.680664	5490.656738
1076.573242	5455.614258
1075.464844	5544.652832
1074.356445	5534.420898
1073.247070	5515.173340
1072.138672	5525.239746
1071.029297	5454.164551
1069.919922	5448.465820
1068.809570	5363.920898
1067.700195	5581.221680
1066.589844	5595.763672
1065.479492	5448.203613
1064.368164	5420.001465
1063.257813	5511.079102
1062.146484	5669.612305
1061.035156	5400.697754
1059.922852	5570.428711
1058.811523	5528.738281
1057.699219	5462.338867
1056.586914	5386.978027
1055.473633	5520.611328
1054.361328	5517.154785
1053.248047	5455.306152
1052.134766	5492.282227
1051.021484	5399.035645
1049.907227	5510.073242
1048.792969	5524.571777
1047.678711	5561.498535
1046.564453	5405.514160
1045.449219	5514.208008
1044.333984	5450.222656
1043.218750	5444.542969
1042.103516	5443.347168
1040.987305	5381.658203
1039.871094	5319.996094
1038.754883	5453.197266
1037.638672	5510.213379
1036.521484	5426.176758
1035.404297	5476.458496
1034.287109	5408.127930
1033.169922	5400.227539
1032.051758	5331.942871
1030.933594	5444.809082
1029.815430	5441.375000
1028.697266	5299.367676
1027.578125	5427.807129
1026.458984	5319.375488
1025.339844	5405.314453
1024.220703	5341.596680
1023.100586	5396.235352
1021.980469	5294.600586
1020.860352	5380.467285
1019.740234	5390.437012
1018.619141	5458.398926
1017.498047	5327.846191
1016.376953	5429.235840
1015.255859	5394.600586
1014.133789	5288.662109
1013.011719	5432.327637
1011.889648	5299.694336
1010.767578	5311.887695
1009.644531	5424.277344
1008.521484	5318.446777
1007.398438	5288.337891
1006.274414	5402.881836
1005.151367	5439.508789
1004.027344	5411.615723
1002.902344	5394.853027
1001.778320	5424.786621
1000.653320	5423.586914
999.528320	5373.497070
998.403320	5374.530273
997.278320	5295.595703
996.152344	5343.281738
995.026367	5377.624023
993.900391	5325.377930
992.773438	5344.172852
991.646484	5433.962402
990.519531	5277.473633
989.392578	5351.711914
988.265625	5208.614258
987.137695	5371.509277
986.009766	5170.843750
984.881836	5351.401367
983.752930	5294.829590
982.624023	5315.804688
981.495117	5418.703613
980.366211	5309.018555
979.236328	5243.650879
978.106445	5326.579102
976.976563	5232.473633
975.846680	5180.436523
974.715820	5303.129395
973.585938	5317.428223
972.454102	5318.458008
971.323242	5228.875977
970.191406	5307.256836
969.060547	5144.818359
967.927734	5324.774414
966.795898	5191.108398
965.663086	5234.104980
964.530273	5283.703125
963.397461	5280.321289
962.264648	5329.886719
961.130859	5198.570801
959.997070	5292.232910
958.863281	5246.962891
957.729492	5179.671387
956.594727	5321.753418
955.459961	5252.270996
954.325195	5233.479980
953.189453	5324.804199
952.053711	5189.316406
950.917969	5331.235840
949.782227	5283.833008
948.646484	5251.852539
947.509766	5266.079102
946.373047	5203.327148
945.235352	5285.717285
944.098633	5273.546875
942.960938	5287.754395
941.823242	5123.978027
940.685547	5160.179199
939.546875	5277.625488
938.408203	5195.203125
937.269531	5145.746582
936.129883	5339.933594
934.991211	5266.328613
933.851563	5289.283691
932.711914	5211.334961
931.571289	5175.084961
930.431641	5233.121094
929.291016	5282.363281
928.149414	5285.564941
927.008789	5253.709961
925.867188	5331.388672
924.725586	5216.321289
923.583984	5215.153809
922.441406	5205.230469
921.299805	5335.370605
920.157227	5205.087891
919.013672	5271.732422
917.871094	5209.316895
916.727539	5146.929199
915.583984	5204.796875
914.439453	5039.719238
913.295898	5324.823242
912.151367	5249.356445
911.006836	5114.954590
909.861328	5222.983887
908.716797	5186.883789
907.571289	5152.981934
906.424805	5258.746094
905.279297	5248.839844
904.132813	5156.056641
902.986328	5174.523926
901.839844	5190.802734
900.692383	5213.612793
899.545898	5149.247559
898.398438	5219.985352
897.250000	5338.609863
896.102539	5282.968750
894.954102	5064.065918
893.805664	5171.760742
892.656250	5205.416992
891.507813	5147.678223
890.358398	5257.455566
889.208984	5223.652344
888.058594	5098.546387
886.908203	5214.780762
885.758789	5276.630859
884.607422	5149.423340
883.457031	5237.327148
882.305664	5249.178223
881.154297	5219.769531
880.002930	5186.031738
878.850586	5215.247559
877.698242	5222.751953
876.545898	5169.510742
875.393555	5135.812988
874.240234	5130.318359
873.086914	5111.818848
871.933594	5186.524414
870.780273	5282.864258
869.625977	5192.850098
868.471680	5089.880859
867.317383	5073.574707
866.162109	5135.212402
865.007813	5175.177734
863.852539	5212.960449
862.696289	5242.071777
861.541016	5266.843750
860.384766	5235.379395
859.228516	5303.380371
858.072266	5274.082520
856.915039	5296.662109
855.757813	5355.959961
854.600586	5307.228027
853.442383	5239.082031
852.285156	5339.373535
851.126953	5346.800293
849.968750	5125.465332
848.809570	5262.392578
847.650391	5133.932129
846.491211	5175.902832
845.332031	5114.359375
844.171875	5218.828613
843.012695	5252.129883
841.851563	5233.703125
840.691406	5118.345703
839.530273	5056.882813
838.369141	5208.615234
837.208008	5054.591797
836.046875	5008.249512
834.884766	5052.300781
833.722656	5122.147461
832.560547	5028.502930
831.397461	5085.420410
830.234375	5163.809570
829.071289	5136.846680
827.908203	5097.002441
826.744141	4986.280762
825.580078	5159.125000
824.416016	5155.806641
823.251953	5010.795898
822.086914	5114.831055
820.921875	5062.168457
819.756836	4975.202637
818.590820	5068.449219
817.425781	4983.664551
816.259766	5044.707031
815.092773	5062.852051
813.926758	4999.555176
812.759766	4961.996582
811.592773	5078.678223
810.424805	5047.542480
809.257813	4965.035645
808.089844	5055.949707
806.920898	5063.359863
805.752930	5002.300293
804.583984	5071.751953
803.415039	5014.994141
802.246094	4834.252441
801.076172	5102.491699
799.906250	4979.513672
798.736328	5027.522461
797.566406	4958.020508
796.395508	5014.554688
795.224609	5068.927246
794.053711	4946.094727
792.881836	5004.725586
791.710938	4933.172363
790.538086	4964.046387
789.366211	4967.180664
788.194336	4968.180664
787.021484	4984.102051
785.848633	5008.541016
784.674805	4958.390137
783.500977	4882.697754
782.327148	4892.232910
781.153320	4959.255859
779.979492	4941.093750
778.804688	5063.411621
777.629883	4938.838379
776.454102	4965.367188
775.279297	4994.010254
774.103516	5024.766602
772.927734	5006.611328
771.750977	5016.095215
770.575195	4980.949707
769.398438	5056.293457
768.220703	4904.333496
767.043945	4996.647949
765.866211	4982.767578
764.688477	4864.888184
763.510742	4984.733887
762.332031	4962.378418
761.153320	4855.188965
759.974609	5002.520996
758.794922	4963.214844
757.616211	5029.907715
756.436523	5060.544434
755.255859	5010.656738
754.076172	4939.610352
752.895508	4985.068848
751.714844	4922.528809
750.533203	4955.269531
749.352539	5055.714844
748.170898	4982.621094
746.988281	4890.522949
745.806641	4984.568359
744.624023	4926.340332
743.441406	4946.350098
742.258789	5091.037109
741.075195	4901.826172
739.891602	4976.748047
738.708008	4914.362793
737.523438	4953.352539
736.339844	4958.549805
735.155273	4946.860840
733.969727	4924.626465
732.785156	4965.686523
731.599609	4850.662598
730.414063	4950.757813
729.227539	4966.485840
728.041992	4897.905273
726.855469	4974.742188
725.667969	4901.977051
724.481445	4995.625488
723.293945	4931.310547
722.106445	4917.547852
720.918945	4918.523438
719.730469	4894.248047
718.541992	4899.435059
717.353516	4946.683105
716.164063	4899.287109
714.975586	4887.650391
713.786133	4850.797852
712.595703	4721.506836
711.406250	4909.490723
710.215820	4839.053223
709.025391	4842.140137
707.833984	4853.623047
706.642578	4835.716309
705.451172	4905.948242
704.259766	4980.343750
703.068359	4977.100586
701.875977	4950.792969
700.683594	4869.989746
699.490234	4833.238770
698.297852	4928.517578
697.104492	4841.489258
695.910156	4846.658691
694.716797	4845.542969
693.522461	4900.953125
692.328125	4828.661133
691.132813	4823.364258
689.938477	4893.384277
688.743164	4800.227051
687.547852	4903.677734
686.351563	4860.735352
685.155273	4947.402344
683.958984	4873.124023
682.762695	4836.484863
681.565430	4827.015625
680.368164	4913.608887
679.170898	4906.213379
677.973633	4869.599121
676.775391	4937.340332
675.577148	4881.958008
674.378906	4849.545410
673.179688	5011.083984
671.980469	5103.747559
670.781250	4981.676270
669.581055	5043.044434
668.381836	5073.132324
667.181641	4976.146973
665.980469	5049.967285
664.780273	4988.424805
663.579102	5070.533691
662.377930	5148.442383
661.175781	5020.341309
659.973633	5131.505859
658.771484	5161.515137
657.569336	5091.713379
656.367188	5088.458984
655.164063	5118.456543
653.960938	5148.439453
652.756836	5149.327637
651.552734	5146.062012
650.348633	5134.492188
649.144531	5158.215332
647.939453	5157.023438
646.735352	5213.926270
645.529297	5084.114746
644.324219	5124.416504
643.118164	5046.519043
641.912109	5043.279785
640.706055	5178.891602
639.499023	5142.472168
638.292969	4963.140625
637.084961	5003.412598
635.877930	5004.326172
634.669922	5079.758789
633.461914	5103.418457
632.253906	5122.928711
631.044922	4947.985352
629.836914	4940.637207
628.626953	4883.668945
627.417969	5056.177734
626.208008	5030.208496
624.998047	4989.787598
623.788086	4943.187988
622.577148	5032.913574
621.366211	4955.354004
620.155273	4892.279785
618.944336	4903.530273
617.732422	4949.851563
616.520508	5031.218750
615.308594	4968.183594
614.095703	4991.776367
612.882813	4879.305664
611.669922	5034.805176
610.457031	5050.123047
609.243164	5022.174316
608.029297	5023.071289
606.815430	5050.733887
605.600586	4981.632813
604.385742	4941.376465
603.170898	4971.095703
601.955078	4856.803711
600.740234	4865.961914
599.524414	4885.395996
598.307617	4902.765625
597.091797	4975.616699
595.875000	5007.339355
594.658203	5065.751953
593.440430	4861.255859
592.222656	4987.433105
591.004883	5027.333496
589.787109	4954.336426
588.568359	4852.647461
587.349609	4995.119629
586.130859	4928.332520
584.912109	4871.828613
583.692383	4821.500488
582.472656	4980.242188
581.251953	4993.430664
580.032227	4916.477539
578.811523	4954.250488
577.589844	4946.958984
576.369141	4984.707031
575.147461	4883.266113
573.925781	4945.564941
572.703125	5030.336426
571.481445	4935.090332
570.258789	4987.108887
569.035156	4961.421387
567.812500	5027.715332
566.588867	5130.758301
565.365234	5078.497070
564.140625	5099.785156
562.916992	5192.528809
561.692383	5199.490234
560.466797	5083.991211
559.242188	5037.920898
558.016602	4914.352539
556.791016	5113.085449
555.564453	5126.172363
554.337891	5127.021484
553.111328	5064.688965
551.884766	5083.890137
550.657227	5101.044434
549.429688	5061.163574
548.202148	5112.930664
546.974609	5087.315430
545.746094	5141.086914
544.517578	5115.476074
543.288086	5181.421387
542.058594	5155.812500
540.829102	5109.881836
539.599609	5236.768555
538.370117	5253.845215
537.139648	5171.347168
535.909180	5391.579102
534.677734	5244.094238
533.446289	5301.762695
532.214844	5241.659668
530.983398	5242.472168
529.750977	5227.051270
528.519531	5302.927246
527.286133	5214.483398
526.053711	5420.100586
524.820313	5285.043457
523.586914	5334.486328
522.353516	5292.721191
521.119141	5388.732910
519.884766	5237.604492
518.650391	5307.259766
517.415039	5198.732422
516.179688	5484.927734
514.944336	5267.140625
513.708984	5322.562500
