#Wave		#Intensity
1585.210938	21869.386719
1584.209961	21559.679688
1583.208984	21672.578125
1582.208008	21650.611328
1581.206055	21523.816406
1580.204102	21521.853516
1579.202148	21347.730469
1578.200195	21360.769531
1577.198242	21565.843750
1576.195313	21130.000000
1575.192383	21260.244141
1574.189453	20924.341797
1573.186523	21099.427734
1572.182617	20865.845703
1571.178711	21093.179688
1570.174805	20461.226563
1569.170898	20768.226563
1568.166992	21010.375000
1567.162109	20866.646484
1566.158203	20902.138672
1565.153320	20932.640625
1564.147461	20913.380859
1563.142578	20834.447266
1562.136719	20904.720703
1561.130859	21228.513672
1560.125000	21383.175781
1559.119141	21358.869141
1558.113281	21866.199219
1557.106445	21819.447266
1556.099609	22026.001953
1555.092773	22445.980469
1554.084961	22592.746094
1553.078125	23129.070313
1552.070313	23265.707031
1551.062500	24235.777344
1550.054688	24151.396484
1549.045898	24805.970703
1548.038086	25460.273438
1547.029297	25953.197266
1546.020508	26488.041016
1545.011719	26940.904297
1544.001953	27772.566406
1542.992188	28581.593750
1541.982422	28947.078125
1540.972656	30154.080078
1539.962891	30036.462891
1538.952148	30690.929688
1537.942383	31194.210938
1536.931641	31289.164063
1535.919922	30872.177734
1534.909180	30499.867188
1533.897461	30083.214844
1532.886719	29202.109375
1531.874023	28719.179688
1530.862305	28271.035156
1529.850586	27289.583984
1528.837891	26654.248047
1527.825195	26001.890625
1526.812500	25214.044922
1525.799805	24833.714844
1524.786133	24293.166016
1523.772461	23664.035156
1522.758789	23244.796875
1521.745117	22894.775391
1520.731445	22572.013672
1519.716797	22513.115234
1518.702148	22538.025391
1517.687500	22368.287109
1516.672852	22107.478516
1515.657227	22258.052734
1514.642578	22026.919922
1513.626953	22243.910156
1512.610352	22177.773438
1511.594727	22106.742188
1510.579102	22023.437500
1509.562500	22146.779297
1508.545898	22117.601563
1507.529297	22240.869141
1506.511719	22437.828125
1505.494141	22391.402344
1504.477539	22315.507813
1503.458984	22357.560547
1502.441406	22208.019531
1501.423828	22232.884766
1500.405273	22586.720703
1499.386719	22390.583984
1498.368164	22079.187500
1497.348633	22467.181641
1496.330078	22234.394531
1495.310547	22210.166016
1494.291016	22303.646484
1493.271484	22205.865234
1492.250977	22380.187500
1491.231445	22245.673828
1490.210938	22174.914063
1489.190430	22243.802734
1488.168945	21984.498047
1487.148438	22354.558594
1486.126953	22582.482422
1485.105469	22492.138672
1484.083984	22622.058594
1483.061523	22299.332031
1482.040039	22796.126953
1481.017578	22766.945313
1479.995117	23089.845703
1478.971680	23207.279297
1477.949219	23097.378906
1476.925781	23659.458984
1475.902344	23818.226563
1474.878906	24414.115234
1473.855469	24721.613281
1472.831055	25402.511719
1471.806641	25699.910156
1470.782227	26243.662109
1469.757813	27121.447266
1468.733398	27991.546875
1467.708008	28563.746094
1466.682617	29503.896484
1465.657227	30273.005859
1464.631836	31468.326172
1463.605469	32594.919922
1462.579102	33160.691406
1461.552734	34800.414063
1460.526367	35959.703125
1459.500000	36860.421875
1458.472656	37366.406250
1457.445313	37830.804688
1456.417969	38299.875000
1455.390625	38323.550781
1454.362305	37751.308594
1453.334961	37276.570313
1452.306641	36972.214844
1451.277344	35829.375000
1450.249023	35170.625000
1449.219727	34325.058594
1448.191406	32850.667969
1447.162109	31925.781250
1446.131836	30539.912109
1445.102539	29518.777344
1444.072266	28459.228516
1443.041992	27861.195313
1442.011719	26872.789063
1440.981445	26505.773438
1439.950195	25867.285156
1438.918945	25566.095703
1437.887695	25155.941406
1436.856445	24750.802734
1435.825195	24714.156250
1434.792969	24299.583984
1433.760742	24139.511719
1432.728516	24190.191406
1431.696289	23676.714844
1430.663086	23323.212891
1429.629883	23136.849609
1428.596680	22836.839844
1427.563477	22786.125000
1426.530273	22580.636719
1425.496094	22288.177734
1424.461914	22293.210938
1423.427734	22264.402344
1422.393555	21972.187500
1421.358398	21827.478516
1420.323242	21687.660156
1419.288086	21586.541016
1418.252930	21328.511719
1417.217773	21449.605469
1416.181641	21249.636719
1415.145508	21348.976563
1414.109375	21556.843750
1413.073242	21470.341797
1412.036133	21615.392578
1411.000000	22042.480469
1409.962891	21886.021484
1408.924805	21828.439453
1407.887695	22411.837891
1406.849609	22797.445313
1405.812500	23296.095703
1404.773438	23982.367188
1403.735352	24259.060547
1402.697266	24992.986328
1401.658203	25177.898438
1400.619141	25418.072266
1399.580078	25889.082031
1398.540039	26234.828125
1397.500977	26137.982422
1396.460938	26394.578125
1395.420898	26266.490234
1394.380859	26340.314453
1393.339844	25875.923828
1392.298828	25957.001953
1391.257813	25915.562500
1390.216797	25792.500000
1389.175781	25398.222656
1388.133789	25745.734375
1387.091797	25615.582031
1386.049805	25970.097656
1385.007813	26221.326172
1383.964844	26705.058594
1382.922852	27119.060547
1381.879883	27362.693359
1380.835938	27457.634766
1379.792969	27921.531250
1378.749023	28279.826172
1377.706055	28702.638672
1376.661133	28773.267578
1375.617188	29109.607422
1374.573242	29227.990234
1373.528320	29473.154297
1372.483398	29471.779297
1371.438477	29180.960938
1370.392578	29636.433594
1369.347656	30184.966797
1368.301758	29282.187500
1367.255859	29522.240234
1366.208984	29480.222656
1365.163086	29521.835938
1364.116211	29768.849609
1363.069336	29571.574219
1362.022461	29527.183594
1360.974609	29690.486328
1359.927734	29932.476563
1358.879883	29959.615234
1357.832031	29998.667969
1356.783203	30278.595703
1355.735352	30584.636719
1354.686523	30883.392578
1353.637695	31384.626953
1352.588867	31542.484375
1351.539063	32253.033203
1350.490234	33091.914063
1349.440430	33861.375000
1348.390625	34694.804688
1347.339844	35651.667969
1346.290039	36255.875000
1345.239258	37024.019531
1344.188477	37487.316406
1343.137695	38468.949219
1342.085938	39098.210938
1341.034180	39812.796875
1339.982422	40612.656250
1338.930664	40955.871094
1337.878906	41738.515625
1336.826172	41836.656250
1335.773438	42257.769531
1334.720703	42149.164063
1333.667969	42023.984375
1332.614258	42074.500000
1331.561523	41999.214844
1330.507813	41356.910156
1329.453125	40257.050781
1328.399414	40286.539063
1327.344727	38997.675781
1326.290039	38811.683594
1325.235352	38037.980469
1324.180664	37518.144531
1323.125000	37327.835938
1322.070313	37346.042969
1321.014648	36727.214844
1319.958008	36878.121094
1318.902344	36292.785156
1317.845703	36105.285156
1316.789063	35364.187500
1315.732422	34599.746094
1314.675781	34244.789063
1313.618164	33440.699219
1312.560547	32483.273438
1311.502930	31639.705078
1310.445313	30784.673828
1309.386719	29941.814453
1308.329102	29519.769531
1307.270508	28604.316406
1306.210938	27632.578125
1305.152344	27079.082031
1304.092773	26535.259766
1303.033203	26078.972656
1301.973633	25964.953125
1300.914063	25506.615234
1299.853516	25230.046875
1298.792969	25349.681641
1297.732422	24733.828125
1296.671875	24730.966797
1295.611328	24763.447266
1294.549805	24767.644531
1293.488281	24482.150391
1292.426758	24441.662109
1291.364258	24594.234375
1290.302734	24466.648438
1289.240234	24362.648438
1288.177734	24348.091797
1287.114258	24180.646484
1286.051758	24109.691406
1284.988281	24527.814453
1283.924805	24162.972656
1282.861328	24235.421875
1281.796875	24270.244141
1280.732422	24610.449219
1279.667969	24905.882813
1278.603516	25050.902344
1277.539063	25052.646484
1276.473633	25103.681641
1275.408203	25276.722656
1274.342773	25581.078125
1273.277344	25392.695313
1272.210938	25579.630859
1271.145508	25750.072266
1270.079102	25641.472656
1269.011719	25802.449219
1267.945313	25459.554688
1266.877930	25561.929688
1265.810547	25109.140625
1264.743164	24953.945313
1263.674805	24260.322266
1262.607422	23854.906250
1261.539063	23737.515625
1260.470703	23140.515625
1259.401367	23112.214844
1258.333008	22693.347656
1257.263672	22522.513672
1256.194336	21690.152344
1255.125000	21804.751953
1254.054688	21430.908203
1252.985352	21410.005859
1251.915039	21108.812500
1250.843750	20569.541016
1249.773438	20555.832031
1248.702148	20383.394531
1247.630859	20014.986328
1246.559570	19891.734375
1245.488281	19903.837891
1244.416016	19591.736328
1243.343750	19851.072266
1242.271484	19455.183594
1241.199219	19038.484375
1240.125977	19393.312500
1239.053711	19172.509766
1237.980469	19471.250000
1236.906250	19366.964844
1235.833008	19383.798828
1234.758789	19270.261719
1233.684570	19093.933594
1232.610352	19073.580078
1231.536133	19304.484375
1230.460938	18988.703125
1229.385742	19291.611328
1228.310547	19426.998047
1227.235352	19232.255859
1226.159180	19479.140625
1225.083008	19658.539063
1224.006836	19508.003906
1222.930664	19678.027344
1221.853516	19801.537109
1220.777344	19969.101563
1219.700195	19995.013672
1218.622070	20417.712891
1217.544922	20359.996094
1216.466797	20427.554688
1215.388672	20745.531250
1214.310547	20759.650391
1213.232422	21054.236328
1212.153320	21388.093750
1211.074219	21703.269531
1209.995117	21758.861328
1208.916016	21870.011719
1207.835938	22194.140625
1206.755859	22006.509766
1205.675781	21976.345703
1204.595703	21890.656250
1203.514648	21821.195313
1202.434570	21649.990234
1201.353516	21654.607422
1200.271484	21717.023438
1199.190430	21619.914063
1198.108398	21162.320313
1197.026367	21208.621094
1195.944336	20866.812500
1194.862305	20797.675781
1193.779297	20557.695313
1192.696289	19946.134766
1191.613281	19858.769531
1190.530273	19928.355469
1189.446289	19672.611328
1188.362305	19278.578125
1187.278320	19013.855469
1186.194336	19092.779297
1185.109375	18860.476563
1184.024414	18787.292969
1182.939453	18518.287109
1181.854492	18334.628906
1180.768555	18353.724609
1179.683594	17981.361328
1178.597656	18265.269531
1177.510742	17899.988281
1176.424805	17900.744141
1175.337891	17892.298828
1174.250977	17508.925781
1173.164063	17769.625000
1172.077148	17938.246094
1170.989258	17856.234375
1169.901367	17473.191406
1168.813477	17887.615234
1167.724609	17631.076172
1166.636719	17866.140625
1165.547852	17779.632813
1164.458984	18104.095703
1163.369141	18095.607422
1162.280273	18465.755859
1161.190430	18500.781250
1160.100586	18526.615234
1159.010742	18763.416016
1157.919922	19087.240234
1156.829102	18879.115234
1155.738281	18923.173828
1154.647461	19088.648438
1153.555664	19370.882813
1152.464844	19000.259766
1151.373047	19177.054688
1150.280273	18854.705078
1149.188477	19040.609375
1148.095703	18839.705078
1147.002930	19210.841797
1145.910156	18696.621094
1144.817383	18644.560547
1143.723633	18617.671875
1142.629883	18414.781250
1141.536133	18248.544922
1140.441406	18347.419922
1139.347656	17993.947266
1138.252930	17832.470703
1137.158203	17986.169922
1136.062500	18059.898438
1134.967773	17661.140625
1133.872070	17876.382813
1132.776367	17808.636719
1131.679688	17857.244141
1130.583984	17709.712891
1129.487305	17712.720703
1128.390625	17743.076172
1127.292969	17844.066406
1126.196289	17967.794922
1125.098633	17936.566406
1124.000977	17668.496094
1122.903320	17769.408203
1121.804688	17490.105469
1120.706055	17713.912109
1119.607422	17821.570313
1118.508789	17656.181641
1117.409180	17640.978516
1116.310547	17655.343750
1115.210938	17653.787109
1114.110352	17504.484375
1113.010742	17552.953125
1111.910156	17651.384766
1110.809570	17300.005859
1109.708984	17259.914063
1108.607422	17303.845703
1107.506836	17143.453125
1106.405273	17441.580078
1105.303711	16911.365234
1104.201172	16848.707031
1103.098633	16720.300781
1101.996094	16646.369141
1100.893555	16771.972656
1099.791016	16872.589844
1098.687500	16800.935547
1097.583984	16892.435547
1096.480469	16859.312500
1095.376953	16860.171875
1094.272461	17053.480469
1093.167969	16961.484375
1092.063477	17328.947266
1090.958008	17236.929688
1089.853516	17233.173828
1088.748047	17428.445313
1087.642578	17562.578125
1086.536133	18221.130859
1085.430664	18694.058594
1084.324219	18312.613281
1083.217773	18737.867188
1082.110352	19431.722656
1081.003906	19332.636719
1079.896484	19599.345703
1078.789063	19881.736328
1077.680664	20109.841797
1076.573242	20247.593750
1075.464844	20240.916016
1074.356445	20520.658203
1073.247070	20173.449219
1072.138672	20135.226563
1071.029297	19666.544922
1069.919922	19612.673828
1068.809570	19398.875000
1067.700195	19227.962891
1066.589844	19016.589844
1065.479492	18544.154297
1064.368164	18450.062500
1063.257813	18173.734375
1062.146484	18221.503906
1061.035156	17754.146484
1059.922852	17592.839844
1058.811523	17402.371094
1057.699219	17362.593750
1056.586914	17329.574219
1055.473633	17024.693359
1054.361328	17059.150391
1053.248047	17075.625000
1052.134766	16793.449219
1051.021484	16661.806641
1049.907227	16949.927734
1048.792969	16645.521484
1047.678711	16359.195313
1046.564453	16696.533203
1045.449219	16690.626953
1044.333984	16796.818359
1043.218750	16707.955078
1042.103516	16670.671875
1040.987305	16664.769531
1039.871094	16640.947266
1038.754883	16693.279297
1037.638672	16573.181641
1036.521484	16925.462891
1035.404297	16539.039063
1034.287109	16653.990234
1033.169922	17261.041016
1032.051758	16704.816406
1030.933594	17007.480469
1029.815430	16748.882813
1028.697266	16879.300781
1027.578125	16810.783203
1026.458984	17155.599609
1025.339844	16950.796875
1024.220703	16900.167969
1023.100586	16818.304688
1021.980469	16756.562500
1020.860352	16953.716797
1019.740234	17177.556641
1018.619141	17233.996094
1017.498047	17114.228516
1016.376953	17077.007813
1015.255859	17269.408203
1014.133789	16929.068359
1013.011719	16965.439453
1011.889648	16934.962891
1010.767578	16953.496094
1009.644531	16983.154297
1008.521484	17208.705078
1007.398438	17220.484375
1006.274414	17052.011719
1005.151367	17010.423828
1004.027344	17060.046875
1002.902344	17165.240234
1001.778320	17363.763672
1000.653320	17179.878906
999.528320	17373.863281
998.403320	17425.564453
997.278320	17255.111328
996.152344	17428.958984
995.026367	17358.492188
993.900391	17720.921875
992.773438	17819.087891
991.646484	17644.291016
990.519531	18159.478516
989.392578	18474.828125
988.265625	18333.257813
987.137695	18389.050781
986.009766	18407.138672
984.881836	18418.570313
983.752930	18802.183594
982.624023	18673.978516
981.495117	18711.910156
980.366211	18506.291016
979.236328	18491.117188
978.106445	18234.738281
976.976563	18173.166016
975.846680	17954.570313
974.715820	17795.781250
973.585938	17712.232422
972.454102	17429.775391
971.323242	17375.074219
970.191406	16871.861328
969.060547	16896.830078
967.927734	17200.060547
966.795898	16789.957031
965.663086	17099.695313
964.530273	17062.787109
963.397461	17222.277344
962.264648	17172.117188
961.130859	17018.316406
959.997070	17188.732422
958.863281	17054.833984
957.729492	17333.164063
956.594727	17148.607422
955.459961	17210.880859
954.325195	17174.007813
953.189453	17150.361328
952.053711	17016.642578
950.917969	17094.292969
949.782227	16956.240234
948.646484	16992.064453
947.509766	16986.076172
946.373047	16887.720703
945.235352	17004.882813
944.098633	17078.027344
942.960938	16896.199219
941.823242	16986.910156
940.685547	17191.810547
939.546875	17043.017578
938.408203	17313.683594
937.269531	17485.439453
936.129883	17422.273438
934.991211	17653.171875
933.851563	17747.949219
932.711914	18119.041016
931.571289	18007.541016
930.431641	18154.787109
929.291016	18126.617188
928.149414	18343.890625
927.008789	18265.296875
925.867188	18177.976563
924.725586	17957.109375
923.583984	17721.013672
922.441406	17780.525391
921.299805	17496.425781
920.157227	17212.453125
919.013672	17027.041016
917.871094	16892.009766
916.727539	16702.375000
915.583984	16563.101563
914.439453	16670.849609
913.295898	16623.412109
912.151367	16615.316406
911.006836	16364.797852
909.861328	16398.248047
908.716797	16462.242188
907.571289	16390.890625
906.424805	16378.484375
905.279297	16342.085938
904.132813	16508.541016
902.986328	16134.135742
901.839844	16126.152344
900.692383	16410.238281
899.545898	16206.074219
898.398438	16134.896484
897.250000	16111.667969
896.102539	16160.310547
894.954102	16402.697266
893.805664	16466.486328
892.656250	16425.789063
891.507813	16361.175781
890.358398	16340.093750
889.208984	16155.916992
888.058594	16297.955078
886.908203	16172.558594
885.758789	16253.674805
884.607422	16182.661133
883.457031	16205.084961
882.305664	16366.490234
881.154297	16013.227539
880.002930	16233.212891
878.850586	16290.324219
877.698242	16026.275391
876.545898	16141.976563
875.393555	15923.623047
874.240234	16030.619141
873.086914	16031.340820
871.933594	15993.046875
870.780273	16229.963867
869.625977	15981.500000
868.471680	15674.667969
867.317383	16052.244141
866.162109	15773.675781
865.007813	15874.007813
863.852539	15649.701172
862.696289	15724.051758
861.541016	16003.850586
860.384766	15727.762695
859.228516	15713.399414
858.072266	15707.687500
856.915039	15449.137695
855.757813	15806.455078
854.600586	15796.401367
853.442383	15734.522461
852.285156	15964.143555
851.126953	16003.705078
849.968750	15915.918945
848.809570	15836.802734
847.650391	15919.503906
846.491211	15816.696289
845.332031	15560.848633
844.171875	15719.000000
843.012695	15637.855469
841.851563	15731.274414
840.691406	15968.980469
839.530273	15788.759766
838.369141	15858.392578
837.208008	15828.966797
836.046875	15810.313477
834.884766	15953.048828
833.722656	15826.811523
832.560547	15790.961914
831.397461	15811.034180
830.234375	15721.456055
829.071289	15814.609375
827.908203	15976.480469
826.744141	15947.076172
825.580078	15855.395508
824.416016	16032.174805
823.251953	15974.864258
822.086914	15932.602539
820.921875	16012.674805
819.756836	16075.546875
818.590820	15812.359375
817.425781	15931.000977
816.259766	15807.320313
815.092773	15910.901367
813.926758	15500.121094
812.759766	15798.688477
811.592773	15889.344727
810.424805	15922.137695
809.257813	15858.568359
808.089844	15735.091797
806.920898	15750.773438
805.752930	15965.425781
804.583984	15923.290039
803.415039	15881.171875
802.246094	15672.299805
801.076172	15805.539063
799.906250	15923.757813
798.736328	16039.784180
797.566406	15824.652344
796.395508	15897.932617
795.224609	16180.425781
794.053711	16240.780273
792.881836	16476.111328
791.710938	16540.636719
790.538086	16846.185547
789.366211	17104.675781
788.194336	17478.187500
787.021484	17608.503906
785.848633	17866.636719
784.674805	17777.330078
783.500977	17619.892578
782.327148	17549.847656
781.153320	17354.203125
779.979492	17282.119141
778.804688	17088.748047
777.629883	16738.001953
776.454102	16946.921875
775.279297	16836.707031
774.103516	16713.781250
772.927734	16686.578125
771.750977	16846.427734
770.575195	17010.453125
769.398438	16978.949219
768.220703	17314.910156
767.043945	17389.523438
765.866211	17483.208984
764.688477	18016.218750
763.510742	18007.855469
762.332031	18667.792969
761.153320	18782.304688
759.974609	19636.857422
758.794922	20249.322266
757.616211	21666.968750
756.436523	22823.308594
755.255859	24824.468750
754.076172	27479.228516
752.895508	30058.652344
751.714844	33875.464844
750.533203	37792.132813
749.352539	42168.343750
748.170898	46155.363281
746.988281	49508.082031
745.806641	52425.734375
744.624023	53443.390625
743.441406	53418.464844
742.258789	52987.785156
741.075195	52045.984375
739.891602	51465.828125
738.708008	51101.347656
737.523438	50644.125000
736.339844	50634.625000
735.155273	50148.167969
733.969727	49220.945313
732.785156	46950.417969
731.599609	43906.929688
730.414063	40559.101563
729.227539	36738.503906
728.041992	33084.042969
726.855469	29677.781250
725.667969	26924.007813
724.481445	24586.396484
723.293945	22757.304688
722.106445	21362.703125
720.918945	20608.548828
719.730469	19781.095703
718.541992	19149.660156
717.353516	18789.824219
716.164063	18215.675781
714.975586	17833.091797
713.786133	17438.072266
712.595703	17419.355469
711.406250	17362.833984
710.215820	17260.128906
709.025391	17090.277344
707.833984	17092.646484
706.642578	16832.658203
705.451172	17032.328125
704.259766	16892.048828
703.068359	17177.603516
701.875977	17379.150391
700.683594	17530.287109
699.490234	17907.714844
698.297852	18760.636719
697.104492	19336.626953
695.910156	20121.800781
694.716797	20780.972656
693.522461	21471.240234
692.328125	21577.228516
691.132813	21804.535156
689.938477	21494.070313
688.743164	21369.900391
687.547852	20743.916016
686.351563	20511.257813
685.155273	19917.109375
683.958984	19542.648438
682.762695	19172.537109
681.565430	18815.125000
680.368164	18574.820313
679.170898	18390.992188
677.973633	18184.289063
676.775391	17965.158203
675.577148	18130.007813
674.378906	18115.398438
673.179688	18050.746094
671.980469	17752.617188
670.781250	17638.050781
669.581055	17767.353516
668.381836	17444.492188
667.181641	17544.615234
665.980469	17290.671875
664.780273	16974.384766
663.579102	17151.558594
662.377930	16887.474609
661.175781	16779.548828
659.973633	16740.316406
658.771484	16861.226563
657.569336	17154.644531
656.367188	17348.154297
655.164063	17547.806641
653.960938	17705.812500
652.756836	18196.091797
651.552734	18247.960938
650.348633	18465.902344
649.144531	19007.556641
647.939453	19175.412109
646.735352	19517.470703
645.529297	19658.162109
644.324219	19925.291016
643.118164	19962.154297
641.912109	19816.585938
640.706055	19693.880859
639.499023	19214.861328
638.292969	19100.634766
637.084961	18829.066406
635.877930	18383.705078
634.669922	18147.615234
633.461914	17710.890625
632.253906	17605.412109
631.044922	17353.115234
629.836914	17125.750000
628.626953	17165.207031
627.417969	16818.095703
626.208008	16960.937500
624.998047	16822.712891
623.788086	16643.238281
622.577148	16616.669922
621.366211	16286.597656
620.155273	16375.719727
618.944336	16369.866211
617.732422	16027.697266
616.520508	15805.329102
615.308594	15935.722656
614.095703	15758.837891
612.882813	16006.678711
611.669922	15776.273438
610.457031	15638.692383
609.243164	15653.611328
608.029297	15695.294922
606.815430	15588.710938
605.600586	15578.924805
604.385742	15674.103516
603.170898	15841.251953
601.955078	15660.672852
600.740234	15805.122070
599.524414	15922.772461
598.307617	15810.133789
597.091797	15919.506836
595.875000	15911.708984
594.658203	16199.724609
593.440430	15834.508789
592.222656	15910.916992
591.004883	15993.448242
589.787109	15805.032227
588.568359	15854.716797
587.349609	15695.137695
586.130859	15515.121094
584.912109	15542.281250
583.692383	15210.685547
582.472656	15475.641602
581.251953	15504.837891
580.032227	15566.796875
578.811523	15643.061523
577.589844	15821.669922
576.369141	16346.154297
575.147461	16471.302734
573.925781	16708.929688
572.703125	17030.318359
571.481445	17408.822266
570.258789	17850.537109
569.035156	18065.132813
567.812500	18549.408203
566.588867	18806.650391
565.365234	19219.027344
564.140625	19355.492188
562.916992	19969.695313
561.692383	19777.251953
560.466797	19601.224609
559.242188	19347.738281
558.016602	19157.611328
556.791016	18900.265625
555.564453	18204.640625
554.337891	17548.072266
553.111328	17187.332031
551.884766	16594.468750
550.657227	16201.520508
549.429688	15955.395508
548.202148	15713.455078
546.974609	15638.557617
545.746094	15636.963867
544.517578	15621.125977
543.288086	15609.363281
542.058594	15264.052734
540.829102	15400.813477
539.599609	15230.540039
538.370117	15405.859375
537.139648	15282.397461
535.909180	15219.936523
534.677734	15277.333984
533.446289	15166.167969
532.214844	15075.354492
530.983398	15335.703125
529.750977	14918.199219
528.519531	14975.595703
527.286133	14937.639648
526.053711	15289.023438
524.820313	15009.767578
523.586914	15042.764648
522.353516	15004.824219
521.119141	15173.537109
519.884766	15007.984375
518.650391	15028.798828
517.415039	14992.917969
516.179688	14906.455078
514.944336	15066.896484
513.708984	14897.509766
