#Wave		#Intensity
1585.210938	23640.218750
1584.209961	23672.687500
1583.208984	23238.277344
1582.208008	23607.953125
1581.206055	23433.328125
1580.204102	23181.412109
1579.202148	23074.312500
1578.200195	23174.302734
1577.198242	23311.662109
1576.195313	23242.001953
1575.192383	23097.580078
1574.189453	23406.847656
1573.186523	23180.214844
1572.182617	22946.201172
1571.178711	22938.957031
1570.174805	22974.052734
1569.170898	22710.345703
1568.166992	22840.068359
1567.162109	22793.029297
1566.158203	22867.935547
1565.153320	22758.710938
1564.147461	22773.896484
1563.142578	22684.628906
1562.136719	22953.423828
1561.130859	23025.728516
1560.125000	23135.283203
1559.119141	23229.882813
1558.113281	23167.935547
1557.106445	23351.900391
1556.099609	23972.832031
1555.092773	23871.042969
1554.084961	24079.568359
1553.078125	24379.826172
1552.070313	24354.929688
1551.062500	24756.710938
1550.054688	25200.486328
1549.045898	25420.912109
1548.038086	26023.027344
1547.029297	26461.304688
1546.020508	27018.347656
1545.011719	27243.166016
1544.001953	27950.912109
1542.992188	28556.828125
1541.982422	28952.029297
1540.972656	29339.640625
1539.962891	29905.287109
1538.952148	29646.699219
1537.942383	29994.337891
1536.931641	29995.548828
1535.919922	29826.125000
1534.909180	29446.613281
1533.897461	29640.742188
1532.886719	29090.896484
1531.874023	28437.498047
1530.862305	28073.406250
1529.850586	27605.726563
1528.837891	27133.302734
1527.825195	26611.695313
1526.812500	25969.355469
1525.799805	25776.423828
1524.786133	25280.091797
1523.772461	25033.109375
1522.758789	24561.796875
1521.745117	24297.804688
1520.731445	24105.412109
1519.716797	23984.578125
1518.702148	23577.937500
1517.687500	23545.955078
1516.672852	23533.687500
1515.657227	23459.859375
1514.642578	23809.558594
1513.626953	23413.216797
1512.610352	23442.824219
1511.594727	23477.339844
1510.579102	23506.919922
1509.562500	23620.115234
1508.545898	23620.142578
1507.529297	23644.753906
1506.511719	23467.787109
1505.494141	23583.349609
1504.477539	23453.150391
1503.458984	23536.730469
1502.441406	23487.644531
1501.423828	23517.156250
1500.405273	23502.464844
1499.386719	23608.050781
1498.368164	23379.839844
1497.348633	23512.396484
1496.330078	23630.175781
1495.310547	23588.492188
1494.291016	23642.453125
1493.271484	23478.205078
1492.250977	23358.142578
1491.231445	23461.123047
1490.210938	23429.312500
1489.190430	23662.056641
1488.168945	23681.642578
1487.148438	23497.996094
1486.126953	23620.417969
1485.105469	23439.306641
1484.083984	23764.785156
1483.061523	23938.449219
1482.040039	23781.837891
1481.017578	23977.433594
1479.995117	24212.064453
1478.971680	24104.378906
1477.949219	24341.328125
1476.925781	24299.630859
1475.902344	24707.439453
1474.878906	25212.775391
1473.855469	25417.548828
1472.831055	25624.677734
1471.806641	26058.718750
1470.782227	26453.533203
1469.757813	27065.330078
1468.733398	27293.892578
1467.708008	27437.000000
1466.682617	28501.738281
1465.657227	28554.333984
1464.631836	29450.220703
1463.605469	29958.279297
1462.579102	30860.808594
1461.552734	31258.748047
1460.526367	32333.535156
1459.500000	33020.742188
1458.472656	33695.492188
1457.445313	33815.054688
1456.417969	34791.082031
1455.390625	35102.554688
1454.362305	34530.976563
1453.334961	34188.226563
1452.306641	34139.792969
1451.277344	33913.937500
1450.249023	32895.910156
1449.219727	32111.558594
1448.191406	31077.318359
1447.162109	30604.546875
1446.131836	29614.753906
1445.102539	29108.490234
1444.072266	28177.669922
1443.041992	27620.949219
1442.011719	27258.556641
1440.981445	26760.472656
1439.950195	26085.554688
1438.918945	26114.080078
1437.887695	25718.355469
1436.856445	25427.013672
1435.825195	25479.884766
1434.792969	25355.876953
1433.760742	24873.433594
1432.728516	24783.503906
1431.696289	24647.607422
1430.663086	24550.496094
1429.629883	24240.449219
1428.596680	23986.181641
1427.563477	24012.642578
1426.530273	24060.857422
1425.496094	23502.093750
1424.461914	23482.699219
1423.427734	23398.046875
1422.393555	23354.511719
1421.358398	23187.771484
1420.323242	22914.808594
1419.288086	22844.830078
1418.252930	23026.001953
1417.217773	22953.613281
1416.181641	22729.195313
1415.145508	23105.736328
1414.109375	22948.931641
1413.073242	22961.037109
1412.036133	23033.427734
1411.000000	23006.929688
1409.962891	23170.880859
1408.924805	23175.695313
1407.887695	23296.167969
1406.849609	24067.048828
1405.812500	24271.582031
1404.773438	24548.273438
1403.735352	24759.841797
1402.697266	25233.697266
1401.658203	25204.371094
1400.619141	25468.599609
1399.580078	25665.361328
1398.540039	25888.494141
1397.500977	25986.494141
1396.460938	26062.814453
1395.420898	26040.552734
1394.380859	26128.841797
1393.339844	25847.093750
1392.298828	25625.513672
1391.257813	25845.916016
1390.216797	25718.066406
1389.175781	25794.320313
1388.133789	25599.330078
1387.091797	25589.187500
1386.049805	25838.148438
1385.007813	25902.314453
1383.964844	26093.548828
1382.922852	26323.062500
1381.879883	26770.613281
1380.835938	26724.281250
1379.792969	26972.683594
1378.749023	27096.410156
1377.706055	27502.703125
1376.661133	27109.035156
1375.617188	27634.855469
1374.573242	27562.058594
1373.528320	28212.001953
1372.483398	28012.306641
1371.438477	28123.662109
1370.392578	28079.515625
1369.347656	27832.146484
1368.301758	28010.400391
1367.255859	27918.498047
1366.208984	27958.060547
1365.163086	28160.062500
1364.116211	28020.410156
1363.069336	28320.220703
1362.022461	28333.394531
1360.974609	28284.496094
1359.927734	28218.912109
1358.879883	28234.478516
1357.832031	28338.304688
1356.783203	28465.935547
1355.735352	28564.896484
1354.686523	28632.820313
1353.637695	29115.457031
1352.588867	29142.720703
1351.539063	29763.234375
1350.490234	30054.757813
1349.440430	30824.855469
1348.390625	31689.873047
1347.339844	32009.371094
1346.290039	32378.712891
1345.239258	33311.863281
1344.188477	33918.683594
1343.137695	34242.191406
1342.085938	34344.402344
1341.034180	34865.023438
1339.982422	35497.148438
1338.930664	35886.589844
1337.878906	36244.980469
1336.826172	36600.839844
1335.773438	36840.167969
1334.720703	36461.996094
1333.667969	36589.664063
1332.614258	35986.207031
1331.561523	35907.457031
1330.507813	36068.367188
1329.453125	35811.718750
1328.399414	35427.109375
1327.344727	34537.613281
1326.290039	34039.636719
1325.235352	33738.589844
1324.180664	33603.539063
1323.125000	33165.292969
1322.070313	33054.101563
1321.014648	32886.117188
1319.958008	32748.982422
1318.902344	32590.597656
1317.845703	32579.009766
1316.789063	32224.333984
1315.732422	31763.351563
1314.675781	31058.951172
1313.618164	30629.144531
1312.560547	30655.794922
1311.502930	29907.156250
1310.445313	29121.021484
1309.386719	28498.238281
1308.329102	28244.208984
1307.270508	27201.496094
1306.210938	26737.701172
1305.152344	26205.640625
1304.092773	25831.933594
1303.033203	25415.906250
1301.973633	25245.408203
1300.914063	24985.349609
1299.853516	24765.488281
1298.792969	24960.666016
1297.732422	24660.755859
1296.671875	24733.324219
1295.611328	24584.378906
1294.549805	24482.607422
1293.488281	24354.970703
1292.426758	24549.978516
1291.364258	24267.001953
1290.302734	24438.404297
1289.240234	24409.712891
1288.177734	24263.394531
1287.114258	23990.119141
1286.051758	23956.830078
1284.988281	24370.283203
1283.924805	23965.513672
1282.861328	24251.875000
1281.796875	24133.960938
1280.732422	24293.304688
1279.667969	24382.117188
1278.603516	24144.486328
1277.539063	24303.720703
1276.473633	24448.802734
1275.408203	24150.287109
1274.342773	24461.919922
1273.277344	24395.753906
1272.210938	24662.638672
1271.145508	24364.324219
1270.079102	24459.966797
1269.011719	24635.257813
1267.945313	24374.625000
1266.877930	24343.691406
1265.810547	24394.748047
1264.743164	24185.843750
1263.674805	23597.740234
1262.607422	23478.041016
1261.539063	23115.000000
1260.470703	23245.806641
1259.401367	22962.501953
1258.333008	22702.701172
1257.263672	22602.015625
1256.194336	22225.509766
1255.125000	22075.880859
1254.054688	22218.414063
1252.985352	21938.013672
1251.915039	21575.976563
1250.843750	21489.658203
1249.773438	21468.751953
1248.702148	21468.859375
1247.630859	21317.267578
1246.559570	20948.738281
1245.488281	21130.914063
1244.416016	20984.150391
1243.343750	20844.441406
1242.271484	20667.490234
1241.199219	20483.619141
1240.125977	20693.656250
1239.053711	20479.566406
1237.980469	20531.115234
1236.906250	20617.572266
1235.833008	20848.353516
1234.758789	20599.486328
1233.684570	20434.511719
1232.610352	20409.218750
1231.536133	20465.359375
1230.460938	20344.707031
1229.385742	20347.349609
1228.310547	20733.599609
1227.235352	20673.396484
1226.159180	20615.539063
1225.083008	20625.085938
1224.006836	20778.648438
1222.930664	20774.218750
1221.853516	20760.500000
1220.777344	20737.501953
1219.700195	20944.283203
1218.622070	21041.916016
1217.544922	21350.621094
1216.466797	20965.669922
1215.388672	21251.066406
1214.310547	21480.695313
1213.232422	21573.464844
1212.153320	21684.730469
1211.074219	22034.599609
1209.995117	21944.181641
1208.916016	22349.423828
1207.835938	22460.423828
1206.755859	22210.230469
1205.675781	22221.685547
1204.595703	22295.609375
1203.514648	22193.673828
1202.434570	22309.203125
1201.353516	22110.177734
1200.271484	22350.523438
1199.190430	22234.787109
1198.108398	22019.720703
1197.026367	22102.808594
1195.944336	21649.923828
1194.862305	21412.019531
1193.779297	21199.617188
1192.696289	21328.972656
1191.613281	21084.363281
1190.530273	20985.232422
1189.446289	20595.449219
1188.362305	20519.529297
1187.278320	20342.171875
1186.194336	20229.445313
1185.109375	20017.646484
1184.024414	20036.398438
1182.939453	19822.423828
1181.854492	19845.814453
1180.768555	19597.421875
1179.683594	19489.595703
1178.597656	19453.179688
1177.510742	19352.333984
1176.424805	19582.894531
1175.337891	19484.361328
1174.250977	19252.457031
1173.164063	19441.492188
1172.077148	19354.542969
1170.989258	19237.746094
1169.901367	19360.011719
1168.813477	19257.046875
1167.724609	19301.146484
1166.636719	19237.279297
1165.547852	19292.841797
1164.458984	19300.167969
1163.369141	19621.937500
1162.280273	19700.324219
1161.190430	19622.666016
1160.100586	19934.978516
1159.010742	19813.728516
1157.919922	20015.808594
1156.829102	20135.277344
1155.738281	19888.009766
1154.647461	19998.287109
1153.555664	20014.593750
1152.464844	20259.919922
1151.373047	20070.076172
1150.280273	20024.539063
1149.188477	19777.605469
1148.095703	19759.607422
1147.002930	19984.126953
1145.910156	19817.412109
1144.817383	19771.970703
1143.723633	19728.833984
1142.629883	19550.847656
1141.536133	19510.058594
1140.441406	19254.509766
1139.347656	19321.164063
1138.252930	19335.259766
1137.158203	19433.832031
1136.062500	19151.117188
1134.967773	19103.611328
1133.872070	19204.447266
1132.776367	19081.658203
1131.679688	18890.496094
1130.583984	18982.185547
1129.487305	19301.826172
1128.390625	19163.160156
1127.292969	19063.296875
1126.196289	18970.308594
1125.098633	18895.583984
1124.000977	19135.177734
1122.903320	18812.257813
1121.804688	18865.091797
1120.706055	18929.281250
1119.607422	18809.128906
1118.508789	18811.875000
1117.409180	18967.009766
1116.310547	18619.521484
1115.210938	18872.388672
1114.110352	18822.832031
1113.010742	18886.921875
1111.910156	18932.806641
1110.809570	18801.490234
1109.708984	18872.353516
1108.607422	18956.804688
1107.506836	18823.292969
1106.405273	18735.230469
1105.303711	18390.798828
1104.201172	18534.257813
1103.098633	18482.599609
1101.996094	18344.792969
1100.893555	18343.070313
1099.791016	18450.144531
1098.687500	18702.201172
1097.583984	18471.570313
1096.480469	18440.369141
1095.376953	18497.500000
1094.272461	18722.150391
1093.167969	18629.791016
1092.063477	18625.734375
1090.958008	18782.324219
1089.853516	18877.767578
1088.748047	18884.962891
1087.642578	18885.369141
1086.536133	19206.791016
1085.430664	19632.039063
1084.324219	19591.603516
1083.217773	20097.910156
1082.110352	20000.919922
1081.003906	20292.382813
1079.896484	20804.972656
1078.789063	20710.142578
1077.680664	20764.296875
1076.573242	20644.693359
1075.464844	20721.392578
1074.356445	20766.482422
1073.247070	20732.632813
1072.138672	20448.572266
1071.029297	20259.291016
1069.919922	20268.382813
1068.809570	19968.833984
1067.700195	19998.251953
1066.589844	19852.013672
1065.479492	19717.093750
1064.368164	19534.964844
1063.257813	19240.394531
1062.146484	19069.695313
1061.035156	18865.328125
1059.922852	18867.943359
1058.811523	18634.478516
1057.699219	18736.046875
1056.586914	18498.212891
1055.473633	18575.048828
1054.361328	18469.888672
1053.248047	18097.511719
1052.134766	18098.035156
1051.021484	18307.333984
1049.907227	18413.294922
1048.792969	17756.269531
1047.678711	17871.277344
1046.564453	18136.509766
1045.449219	18287.257813
1044.333984	18061.289063
1043.218750	18088.703125
1042.103516	18181.093750
1040.987305	18219.669922
1039.871094	17917.746094
1038.754883	18243.017578
1037.638672	18259.158203
1036.521484	17955.183594
1035.404297	18136.992188
1034.287109	17942.812500
1033.169922	17974.658203
1032.051758	18024.382813
1030.933594	18100.914063
1029.815430	17965.033203
1028.697266	17744.275391
1027.578125	18234.212891
1026.458984	18366.478516
1025.339844	18308.826172
1024.220703	18284.695313
1023.100586	18296.296875
1021.980469	18332.443359
1020.860352	18243.601563
1019.740234	18152.564453
1018.619141	18257.865234
1017.498047	18164.632813
1016.376953	18198.531250
1015.255859	18020.640625
1014.133789	18038.951172
1013.011719	18014.917969
1011.889648	17986.435547
1010.767578	18381.136719
1009.644531	18308.048828
1008.521484	18299.554688
1007.398438	18015.070313
1006.274414	18278.119141
1005.151367	18002.660156
1004.027344	18312.302734
1002.902344	18059.193359
1001.778320	18248.625000
1000.653320	18502.433594
999.528320	18409.449219
998.403320	18103.212891
997.278320	18239.150391
996.152344	18281.751953
995.026367	18406.484375
993.900391	18364.671875
992.773438	18456.039063
991.646484	18605.052734
990.519531	18580.966797
989.392578	18707.705078
988.265625	19073.861328
987.137695	18916.669922
986.009766	19180.660156
984.881836	19041.238281
983.752930	19200.957031
982.624023	19141.326172
981.495117	19157.009766
980.366211	19192.611328
979.236328	19164.005859
978.106445	18936.244141
976.976563	18965.228516
975.846680	18795.119141
974.715820	18552.107422
973.585938	18678.435547
972.454102	18451.025391
971.323242	18106.585938
970.191406	18436.199219
969.060547	18164.810547
967.927734	17904.582031
966.795898	18063.996094
965.663086	18037.904297
964.530273	18073.621094
963.397461	18248.332031
962.264648	18321.484375
961.130859	18321.818359
959.997070	18322.152344
958.863281	18518.693359
957.729492	18331.626953
956.594727	18431.115234
955.459961	18111.962891
954.325195	18266.519531
953.189453	18244.832031
952.053711	18236.363281
950.917969	17836.087891
949.782227	18071.986328
948.646484	17883.140625
947.509766	17879.152344
946.373047	17921.349609
945.235352	17985.511719
944.098633	17851.802734
942.960938	17948.916016
941.823242	17931.726563
940.685547	18026.576172
939.546875	17875.402344
938.408203	18073.421875
937.269531	18016.699219
936.129883	17966.583984
934.991211	18480.423828
933.851563	18546.496094
932.711914	18329.599609
931.571289	18579.871094
930.431641	18597.640625
929.291016	18733.759766
928.149414	18799.693359
927.008789	18723.189453
925.867188	18635.765625
924.725586	18861.533203
923.583984	18658.076172
922.441406	18715.189453
921.299805	18520.607422
920.157227	18299.853516
919.013672	18101.074219
917.871094	18105.765625
916.727539	18025.183594
915.583984	17802.546875
914.439453	17676.169922
913.295898	17975.921875
912.151367	17583.050781
911.006836	17749.460938
909.861328	17621.019531
908.716797	17462.072266
907.571289	17746.250000
906.424805	17550.246094
905.279297	17485.224609
904.132813	17577.267578
902.986328	17438.125000
901.839844	17475.630859
900.692383	17432.472656
899.545898	17496.109375
898.398438	17509.609375
897.250000	17488.250000
896.102539	17512.628906
894.954102	17310.570313
893.805664	17385.039063
892.656250	17592.218750
891.507813	17564.330078
890.358398	17488.599609
889.208984	17269.369141
888.058594	17467.685547
886.908203	17478.970703
885.758789	17214.248047
884.607422	17416.785156
883.457031	17667.017578
882.305664	17343.789063
881.154297	17233.490234
880.002930	17260.000000
878.850586	17171.468750
877.698242	17375.902344
876.545898	17417.542969
875.393555	17116.484375
874.240234	17077.933594
873.086914	17481.640625
871.933594	17200.273438
870.780273	17231.064453
869.625977	16956.378906
868.471680	16902.736328
867.317383	17104.636719
866.162109	17111.601563
865.007813	17213.796875
863.852539	17153.648438
862.696289	17238.476563
861.541016	16968.537109
860.384766	16752.781250
859.228516	16878.716797
858.072266	17186.160156
856.915039	16868.927734
855.757813	16724.681641
854.600586	16666.900391
853.442383	16807.822266
852.285156	16924.927734
851.126953	16985.857422
849.968750	16900.007813
848.809570	16844.402344
847.650391	17205.144531
846.491211	17104.203125
845.332031	16921.371094
844.171875	17115.861328
843.012695	17058.107422
841.851563	17084.410156
840.691406	17104.236328
839.530273	17007.753906
838.369141	17120.173828
837.208008	16980.673828
836.046875	17006.957031
834.884766	17056.894531
833.722656	17068.087891
832.560547	16806.125000
831.397461	16673.296875
830.234375	17131.722656
829.071289	17013.923828
827.908203	17136.843750
826.744141	17057.763672
825.580078	17081.816406
824.416016	16871.792969
823.251953	16936.662109
822.086914	16767.544922
820.921875	17210.085938
819.756836	16929.419922
818.590820	17007.080078
817.425781	17063.261719
816.259766	17027.226563
815.092773	16952.623047
813.926758	16985.201172
812.759766	17067.039063
811.592773	16908.935547
810.424805	16947.921875
809.257813	16989.029297
808.089844	16991.587891
806.920898	16949.201172
805.752930	16793.437500
804.583984	16924.376953
803.415039	16924.802734
802.246094	16781.974609
801.076172	16664.861328
799.906250	16770.060547
798.736328	16740.603516
797.566406	16805.148438
796.395508	16720.166016
795.224609	16893.578125
794.053711	16966.578125
792.881836	17167.595703
791.710938	17027.125000
790.538086	17588.552734
789.366211	17757.296875
788.194336	18130.660156
787.021484	18083.890625
785.848633	18143.705078
784.674805	18295.117188
783.500977	18099.214844
782.327148	17994.984375
781.153320	17986.619141
779.979492	17731.308594
778.804688	17582.533203
777.629883	17593.414063
776.454102	17440.480469
775.279297	17613.033203
774.103516	17345.332031
772.927734	17417.906250
771.750977	17443.683594
770.575195	17414.199219
769.398438	17499.449219
768.220703	17544.302734
767.043945	17799.363281
765.866211	18149.841797
764.688477	18107.488281
763.510742	18009.976563
762.332031	18712.345703
761.153320	18992.292969
759.974609	19420.554688
758.794922	20066.992188
757.616211	20605.029297
756.436523	21558.173828
755.255859	22902.833984
754.076172	24344.312500
752.895508	26490.326172
751.714844	29202.767578
750.533203	31818.712891
749.352539	34617.574219
748.170898	37556.902344
746.988281	39963.949219
745.806641	41625.480469
744.624023	42163.550781
743.441406	42027.062500
742.258789	41294.671875
741.075195	40708.398438
739.891602	39780.187500
738.708008	39034.019531
737.523438	38801.261719
736.339844	37998.660156
735.155273	37584.746094
733.969727	36675.175781
732.785156	35797.664063
731.599609	33728.976563
730.414063	31878.408203
729.227539	29664.001953
728.041992	27465.361328
726.855469	25200.302734
725.667969	23328.101563
724.481445	22151.765625
723.293945	21085.458984
722.106445	20080.689453
720.918945	19467.839844
719.730469	18855.269531
718.541992	18674.232422
717.353516	18432.283203
716.164063	18240.908203
714.975586	17936.101563
713.786133	17591.498047
712.595703	17488.697266
711.406250	17600.220703
710.215820	17434.453125
709.025391	17419.947266
707.833984	17164.023438
706.642578	17254.525391
705.451172	17246.359375
704.259766	17244.492188
703.068359	17366.369141
701.875977	17404.312500
700.683594	17721.060547
699.490234	18094.253906
698.297852	18507.085938
697.104492	18844.308594
695.910156	19204.414063
694.716797	20048.068359
693.522461	20531.246094
692.328125	20641.636719
691.132813	20454.830078
689.938477	20588.199219
688.743164	20342.923828
687.547852	19924.195313
686.351563	19555.835938
685.155273	19336.044922
683.958984	18761.109375
682.762695	18767.232422
681.565430	18531.060547
680.368164	18493.378906
679.170898	18163.427734
677.973633	18148.804688
676.775391	18213.486328
675.577148	18288.566406
674.378906	18109.140625
673.179688	17835.955078
671.980469	17765.126953
670.781250	17821.476563
669.581055	17827.787109
668.381836	17536.162109
667.181641	17496.707031
665.980469	17367.722656
664.780273	17074.320313
663.579102	17153.640625
662.377930	17091.414063
661.175781	16933.509766
659.973633	16881.759766
658.771484	16927.773438
657.569336	16934.261719
656.367188	17088.326172
655.164063	17155.037109
653.960938	17223.794922
652.756836	17693.414063
651.552734	17624.951172
650.348633	17878.332031
649.144531	18291.425781
647.939453	18334.931641
646.735352	18652.287109
645.529297	18805.625000
644.324219	18749.433594
643.118164	18861.208984
641.912109	18603.960938
640.706055	18518.837891
639.499023	18377.812500
638.292969	18037.992188
637.084961	17830.869141
635.877930	17592.785156
634.669922	17621.837891
633.461914	17272.154297
632.253906	17038.498047
631.044922	16902.169922
629.836914	17007.869141
628.626953	17034.949219
627.417969	16913.183594
626.208008	16905.136719
624.998047	16791.720703
623.788086	16845.673828
622.577148	16726.125000
621.366211	16784.197266
620.155273	16501.638672
618.944336	16415.269531
617.732422	16324.812500
616.520508	16430.363281
615.308594	16296.632813
614.095703	16437.191406
612.882813	16344.746094
611.669922	16204.942383
610.457031	16178.526367
609.243164	16057.362305
608.029297	16109.250977
606.815430	15918.151367
605.600586	16056.502930
604.385742	16168.035156
603.170898	16125.197266
601.955078	16057.692383
600.740234	16199.992188
599.524414	16076.983398
598.307617	16350.774414
597.091797	16145.578125
595.875000	16374.019531
594.658203	16195.615234
593.440430	16037.831055
592.222656	16257.922852
591.004883	16172.042969
589.787109	16155.981445
588.568359	16246.622070
587.349609	16050.026367
586.130859	16040.154297
584.912109	15966.720703
583.692383	15731.375000
582.472656	16014.655273
581.251953	16031.432617
580.032227	16113.754883
578.811523	16015.807617
577.589844	16026.427734
576.369141	16200.809570
575.147461	16567.494141
573.925781	16571.835938
572.703125	16932.125000
571.481445	17118.402344
570.258789	17239.162109
569.035156	17560.201172
567.812500	17860.652344
566.588867	18285.605469
565.365234	18356.949219
564.140625	18550.800781
562.916992	18783.355469
561.692383	18713.673828
560.466797	18695.044922
559.242188	18468.296875
558.016602	18262.052734
556.791016	18184.392578
555.564453	17647.980469
554.337891	17552.150391
553.111328	16991.673828
551.884766	16757.478516
550.657227	16415.421875
549.429688	16157.027344
548.202148	16057.575195
546.974609	15854.346680
545.746094	16027.735352
544.517578	15918.206055
543.288086	15737.525391
542.058594	15835.565430
540.829102	15646.851563
539.599609	15925.793945
538.370117	15796.086914
537.139648	15804.611328
535.909180	15660.769531
534.677734	15604.328125
533.446289	15785.485352
532.214844	15869.114258
530.983398	15508.219727
529.750977	15498.532227
528.519531	15774.889648
527.286133	15446.715820
526.053711	15668.207031
524.820313	15634.160156
523.586914	15644.717773
522.353516	15604.612305
521.119141	15536.162109
519.884766	15668.254883
518.650391	15707.139648
517.415039	15644.784180
516.179688	15448.875977
514.944336	15465.523438
513.708984	15528.691406
