#Wave		#Intensity
1585.210938	24519.388672
1584.209961	24566.843750
1583.208984	24494.332031
1582.208008	24449.312500
1581.206055	24603.996094
1580.204102	24406.740234
1579.202148	24082.316406
1578.200195	24279.384766
1577.198242	24281.837891
1576.195313	24331.666016
1575.192383	24159.595703
1574.189453	24254.289063
1573.186523	24144.603516
1572.182617	24029.978516
1571.178711	23863.091797
1570.174805	24044.929688
1569.170898	23559.400391
1568.166992	23676.501953
1567.162109	23820.929688
1566.158203	24034.970703
1565.153320	23761.308594
1564.147461	23527.554688
1563.142578	23796.230469
1562.136719	23930.535156
1561.130859	23965.351563
1560.125000	24154.240234
1559.119141	24457.347656
1558.113281	24606.304688
1557.106445	24817.292969
1556.099609	25035.642578
1555.092773	25484.791016
1554.084961	25633.408203
1553.078125	26169.103516
1552.070313	26545.781250
1551.062500	26738.736328
1550.054688	26829.923828
1549.045898	27796.375000
1548.038086	28229.419922
1547.029297	28838.261719
1546.020508	29293.210938
1545.011719	30042.800781
1544.001953	31203.265625
1542.992188	31595.525391
1541.982422	32408.544922
1540.972656	32948.921875
1539.962891	33150.000000
1538.952148	33675.148438
1537.942383	33742.394531
1536.931641	34220.203125
1535.919922	33854.542969
1534.909180	33775.832031
1533.897461	32854.230469
1532.886719	32615.117188
1531.874023	32193.253906
1530.862305	31270.078125
1529.850586	30653.546875
1528.837891	29931.085938
1527.825195	29080.542969
1526.812500	28467.310547
1525.799805	27970.320313
1524.786133	27463.664063
1523.772461	26698.201172
1522.758789	26431.246094
1521.745117	26041.111328
1520.731445	25988.878906
1519.716797	25626.107422
1518.702148	25512.373047
1517.687500	25107.964844
1516.672852	25063.353516
1515.657227	24718.308594
1514.642578	24952.023438
1513.626953	24740.072266
1512.610352	24966.300781
1511.594727	24884.849609
1510.579102	24906.757813
1509.562500	24675.310547
1508.545898	25002.183594
1507.529297	24623.292969
1506.511719	24918.083984
1505.494141	25089.871094
1504.477539	24681.707031
1503.458984	24811.708984
1502.441406	25020.248047
1501.423828	24931.576172
1500.405273	24860.123047
1499.386719	24820.609375
1498.368164	25065.781250
1497.348633	25161.183594
1496.330078	24824.808594
1495.310547	24993.794922
1494.291016	25015.587891
1493.271484	25044.726563
1492.250977	25017.476563
1491.231445	24860.361328
1490.210938	25107.558594
1489.190430	25124.400391
1488.168945	24840.009766
1487.148438	25314.761719
1486.126953	24876.224609
1485.105469	25128.052734
1484.083984	25746.816406
1483.061523	25433.226563
1482.040039	25596.722656
1481.017578	25515.609375
1479.995117	26150.888672
1478.971680	25901.025391
1477.949219	26296.455078
1476.925781	26703.937500
1475.902344	26940.246094
1474.878906	27362.078125
1473.855469	27676.289063
1472.831055	28105.115234
1471.806641	28606.986328
1470.782227	29164.777344
1469.757813	29593.021484
1468.733398	30755.332031
1467.708008	31226.964844
1466.682617	31993.439453
1465.657227	33083.828125
1464.631836	33749.664063
1463.605469	34478.582031
1462.579102	35882.054688
1461.552734	36753.933594
1460.526367	38326.820313
1459.500000	38710.867188
1458.472656	39902.941406
1457.445313	40873.039063
1456.417969	41000.820313
1455.390625	41191.796875
1454.362305	40852.457031
1453.334961	40805.066406
1452.306641	39943.218750
1451.277344	39217.851563
1450.249023	38363.980469
1449.219727	37542.046875
1448.191406	36193.308594
1447.162109	34864.554688
1446.131836	33742.753906
1445.102539	32735.519531
1444.072266	32017.541016
1443.041992	31081.455078
1442.011719	30706.212891
1440.981445	29472.419922
1439.950195	29269.853516
1438.918945	28499.990234
1437.887695	28026.195313
1436.856445	27896.761719
1435.825195	27510.521484
1434.792969	27298.875000
1433.760742	26864.472656
1432.728516	26735.380859
1431.696289	26795.193359
1430.663086	26320.009766
1429.629883	26273.394531
1428.596680	26301.804688
1427.563477	25686.705078
1426.530273	25756.339844
1425.496094	25139.187500
1424.461914	25179.894531
1423.427734	24476.097656
1422.393555	24611.169922
1421.358398	24656.789063
1420.323242	24400.429688
1419.288086	24501.617188
1418.252930	24117.419922
1417.217773	24107.570313
1416.181641	24401.843750
1415.145508	24297.824219
1414.109375	24119.056641
1413.073242	24367.306641
1412.036133	24212.710938
1411.000000	24451.191406
1409.962891	25000.542969
1408.924805	24865.187500
1407.887695	25298.558594
1406.849609	25459.515625
1405.812500	25707.115234
1404.773438	26698.716797
1403.735352	26878.537109
1402.697266	27691.351563
1401.658203	27894.955078
1400.619141	28276.521484
1399.580078	28621.845703
1398.540039	28822.716797
1397.500977	29100.449219
1396.460938	28950.134766
1395.420898	29033.029297
1394.380859	29082.244141
1393.339844	28828.710938
1392.298828	28887.552734
1391.257813	28660.580078
1390.216797	28330.453125
1389.175781	28379.753906
1388.133789	28402.630859
1387.091797	28771.039063
1386.049805	28652.275391
1385.007813	28768.621094
1383.964844	29285.398438
1382.922852	29334.427734
1381.879883	29627.935547
1380.835938	29770.335938
1379.792969	30327.197266
1378.749023	30706.550781
1377.706055	31040.236328
1376.661133	31014.593750
1375.617188	31089.511719
1374.573242	31229.021484
1373.528320	31914.093750
1372.483398	31603.566406
1371.438477	31594.566406
1370.392578	31819.943359
1369.347656	31978.275391
1368.301758	31765.998047
1367.255859	32034.212891
1366.208984	32063.355469
1365.163086	32309.890625
1364.116211	32319.849609
1363.069336	32487.417969
1362.022461	32377.953125
1360.974609	32593.173828
1359.927734	32603.058594
1358.879883	32722.695313
1357.832031	32811.265625
1356.783203	33319.574219
1355.735352	33186.214844
1354.686523	33188.800781
1353.637695	34211.554688
1352.588867	34585.679688
1351.539063	35090.691406
1350.490234	36067.136719
1349.440430	36595.437500
1348.390625	37483.054688
1347.339844	38239.367188
1346.290039	39542.777344
1345.239258	40041.339844
1344.188477	40963.167969
1343.137695	41898.878906
1342.085938	42874.617188
1341.034180	42960.730469
1339.982422	43717.140625
1338.930664	44556.410156
1337.878906	45093.562500
1336.826172	45202.878906
1335.773438	46228.933594
1334.720703	45874.914063
1333.667969	46385.210938
1332.614258	46071.648438
1331.561523	45266.980469
1330.507813	44906.328125
1329.453125	44242.195313
1328.399414	43938.820313
1327.344727	43121.039063
1326.290039	42789.574219
1325.235352	42223.601563
1324.180664	41700.519531
1323.125000	41440.625000
1322.070313	40865.812500
1321.014648	40684.347656
1319.958008	40453.234375
1318.902344	40092.023438
1317.845703	39773.558594
1316.789063	38892.089844
1315.732422	38358.734375
1314.675781	38215.851563
1313.618164	37181.554688
1312.560547	36317.906250
1311.502930	35716.988281
1310.445313	34603.515625
1309.386719	33398.367188
1308.329102	33176.375000
1307.270508	32035.794922
1306.210938	31160.140625
1305.152344	30350.951172
1304.092773	30042.455078
1303.033203	29705.771484
1301.973633	28904.470703
1300.914063	28870.072266
1299.853516	28276.800781
1298.792969	28042.142578
1297.732422	28033.871094
1296.671875	27679.169922
1295.611328	27852.398438
1294.549805	27844.166016
1293.488281	27897.169922
1292.426758	27738.226563
1291.364258	27541.681641
1290.302734	27693.564453
1289.240234	27577.115234
1288.177734	27695.984375
1287.114258	27358.474609
1286.051758	27418.541016
1284.988281	27438.611328
1283.924805	27604.416016
1282.861328	27584.480469
1281.796875	27649.140625
1280.732422	27859.423828
1279.667969	27780.722656
1278.603516	28101.251953
1277.539063	28156.349609
1276.473633	28307.658203
1275.408203	28411.964844
1274.342773	28943.242188
1273.277344	28573.525391
1272.210938	28492.429688
1271.145508	28842.800781
1270.079102	28824.972656
1269.011719	28884.494141
1267.945313	28622.960938
1266.877930	28272.509766
1265.810547	27929.234375
1264.743164	27794.517578
1263.674805	27273.546875
1262.607422	27251.380859
1261.539063	26527.134766
1260.470703	26465.355469
1259.401367	26305.351563
1258.333008	25794.591797
1257.263672	25471.111328
1256.194336	25325.439453
1255.125000	24632.896484
1254.054688	24608.974609
1252.985352	24391.146484
1251.915039	24084.646484
1250.843750	23768.935547
1249.773438	23579.435547
1248.702148	23329.324219
1247.630859	23072.312500
1246.559570	22922.744141
1245.488281	22763.906250
1244.416016	22768.396484
1243.343750	22371.806641
1242.271484	22513.925781
1241.199219	22206.126953
1240.125977	22215.386719
1239.053711	22061.548828
1237.980469	22094.126953
1236.906250	22322.312500
1235.833008	22212.785156
1234.758789	22177.794922
1233.684570	22142.818359
1232.610352	22112.507813
1231.536133	22219.466797
1230.460938	22131.001953
1229.385742	22149.542969
1228.310547	22305.242188
1227.235352	21930.908203
1226.159180	22339.892578
1225.083008	22002.880859
1224.006836	22188.669922
1222.930664	22290.771484
1221.853516	22478.738281
1220.777344	22643.410156
1219.700195	22924.056641
1218.622070	23151.212891
1217.544922	23308.669922
1216.466797	23410.390625
1215.388672	23414.667969
1214.310547	23845.542969
1213.232422	23898.400391
1212.153320	24340.572266
1211.074219	24386.345703
1209.995117	24805.056641
1208.916016	24737.222656
1207.835938	24882.445313
1206.755859	24678.035156
1205.675781	24751.453125
1204.595703	24602.691406
1203.514648	24803.332031
1202.434570	24816.531250
1201.353516	24785.785156
1200.271484	24417.490234
1199.190430	24449.250000
1198.108398	24083.492188
1197.026367	23856.523438
1195.944336	23814.453125
1194.862305	23231.960938
1193.779297	23353.984375
1192.696289	22979.609375
1191.613281	23163.947266
1190.530273	22524.396484
1189.446289	22182.732422
1188.362305	22074.179688
1187.278320	21705.082031
1186.194336	21760.373047
1185.109375	21476.787109
1184.024414	21177.187500
1182.939453	21317.802734
1181.854492	21333.960938
1180.768555	21147.433594
1179.683594	21124.472656
1178.597656	20661.810547
1177.510742	20816.187500
1176.424805	20560.888672
1175.337891	20271.189453
1174.250977	20414.044922
1173.164063	20448.751953
1172.077148	20630.591797
1170.989258	20389.390625
1169.901367	20391.902344
1168.813477	20534.570313
1167.724609	20569.205078
1166.636719	20553.296875
1165.547852	20401.916016
1164.458984	20762.546875
1163.369141	20544.621094
1162.280273	20760.492188
1161.190430	21263.050781
1160.100586	21572.714844
1159.010742	21565.775391
1157.919922	21517.566406
1156.829102	21730.695313
1155.738281	21987.275391
1154.647461	21540.318359
1153.555664	21817.441406
1152.464844	21899.767578
1151.373047	21853.828125
1150.280273	21888.033203
1149.188477	22080.148438
1148.095703	21462.115234
1147.002930	21716.007813
1145.910156	21391.093750
1144.817383	21361.320313
1143.723633	21244.677734
1142.629883	21084.650391
1141.536133	20780.714844
1140.441406	21004.710938
1139.347656	20721.480469
1138.252930	20664.472656
1137.158203	20497.884766
1136.062500	20434.099609
1134.967773	20436.527344
1133.872070	20553.046875
1132.776367	20229.205078
1131.679688	20192.894531
1130.583984	20535.148438
1129.487305	20537.544922
1128.390625	20544.496094
1127.292969	20603.857422
1126.196289	20531.041016
1125.098633	20449.144531
1124.000977	20478.876953
1122.903320	20431.175781
1121.804688	20526.914063
1120.706055	20401.837891
1119.607422	20351.904297
1118.508789	20600.015625
1117.409180	20570.527344
1116.310547	20447.818359
1115.210938	20434.287109
1114.110352	20122.996094
1113.010742	19986.822266
1111.910156	20209.687500
1110.809570	20402.921875
1109.708984	20259.958984
1108.607422	20148.841797
1107.506836	20144.464844
1106.405273	19824.619141
1105.303711	19933.765625
1104.201172	19938.505859
1103.098633	19825.304688
1101.996094	19437.771484
1100.893555	19712.396484
1099.791016	19662.777344
1098.687500	19721.949219
1097.583984	19536.410156
1096.480469	19627.292969
1095.376953	19788.337891
1094.272461	19815.728516
1093.167969	19743.503906
1092.063477	19967.781250
1090.958008	20038.099609
1089.853516	20078.978516
1088.748047	20599.310547
1087.642578	20673.960938
1086.536133	21051.509766
1085.430664	21356.566406
1084.324219	21634.373047
1083.217773	21778.761719
1082.110352	22273.185547
1081.003906	22383.496094
1079.896484	22520.847656
1078.789063	22908.691406
1077.680664	23025.552734
1076.573242	23083.701172
1075.464844	23232.050781
1074.356445	23150.296875
1073.247070	23127.201172
1072.138672	23083.824219
1071.029297	22790.294922
1069.919922	22767.287109
1068.809570	22669.943359
1067.700195	22146.955078
1066.589844	21775.064453
1065.479492	21650.980469
1064.368164	21175.820313
1063.257813	21245.447266
1062.146484	20979.814453
1061.035156	20700.800781
1059.922852	20399.417969
1058.811523	20023.968750
1057.699219	19855.488281
1056.586914	20105.091797
1055.473633	19878.244141
1054.361328	19700.916016
1053.248047	19867.285156
1052.134766	19640.634766
1051.021484	19449.998047
1049.907227	19349.222656
1048.792969	19149.755859
1047.678711	19316.054688
1046.564453	19143.595703
1045.449219	19083.332031
1044.333984	19357.146484
1043.218750	19063.746094
1042.103516	19420.357422
1040.987305	18997.119141
1039.871094	19246.066406
1038.754883	19376.207031
1037.638672	19611.523438
1036.521484	19184.130859
1035.404297	19352.242188
1034.287109	19332.324219
1033.169922	19272.144531
1032.051758	19480.378906
1030.933594	19189.876953
1029.815430	19371.205078
1028.697266	19425.054688
1027.578125	19476.642578
1026.458984	19320.435547
1025.339844	19646.753906
1024.220703	19466.011719
1023.100586	19626.935547
1021.980469	19537.791016
1020.860352	19571.421875
1019.740234	19578.263672
1018.619141	19676.558594
1017.498047	19542.869141
1016.376953	19554.167969
1015.255859	19498.582031
1014.133789	19527.710938
1013.011719	19235.964844
1011.889648	19472.310547
1010.767578	19568.236328
1009.644531	19717.560547
1008.521484	19828.968750
1007.398438	19753.365234
1006.274414	19595.460938
1005.151367	19564.433594
1004.027344	19508.953125
1002.902344	19497.968750
1001.778320	19796.023438
1000.653320	19622.714844
999.528320	20091.722656
998.403320	19691.798828
997.278320	19727.425781
996.152344	19811.892578
995.026367	20218.269531
993.900391	20002.908203
992.773438	20258.142578
991.646484	20151.589844
990.519531	20426.640625
989.392578	20856.816406
988.265625	20730.240234
987.137695	21044.878906
986.009766	21275.150391
984.881836	21283.730469
983.752930	21241.349609
982.624023	21473.634766
981.495117	21342.650391
980.366211	21045.675781
979.236328	20861.716797
978.106445	21195.669922
976.976563	20859.095703
975.846680	20697.414063
974.715820	20465.037109
973.585938	20276.980469
972.454102	19993.953125
971.323242	20075.701172
970.191406	19996.117188
969.060547	19945.283203
967.927734	19671.410156
966.795898	19770.814453
965.663086	19521.378906
964.530273	19539.109375
963.397461	19706.875000
962.264648	19717.933594
961.130859	19801.769531
959.997070	20009.050781
958.863281	19812.796875
957.729492	20026.591797
956.594727	19887.712891
955.459961	20026.486328
954.325195	20052.863281
953.189453	19960.308594
952.053711	19610.199219
950.917969	19748.906250
949.782227	19643.271484
948.646484	19590.488281
947.509766	19878.679688
946.373047	19876.445313
945.235352	19685.119141
944.098633	19509.265625
942.960938	19533.484375
941.823242	19654.367188
940.685547	19882.835938
939.546875	19939.892578
938.408203	19937.634766
937.269531	20306.380859
936.129883	20093.337891
934.991211	20262.199219
933.851563	20483.634766
932.711914	20487.828125
931.571289	20494.212891
930.431641	20822.867188
929.291016	20537.654297
928.149414	20863.955078
927.008789	20791.371094
925.867188	20677.201172
924.725586	20525.851563
923.583984	20446.818359
922.441406	20247.427734
921.299805	20172.865234
920.157227	20242.736328
919.013672	20056.646484
917.871094	19675.998047
916.727539	19313.009766
915.583984	19444.210938
914.439453	19280.314453
913.295898	19103.376953
912.151367	18981.130859
911.006836	18937.562500
909.861328	19073.060547
908.716797	19199.765625
907.571289	18896.449219
906.424805	18907.484375
905.279297	18946.871094
904.132813	19149.820313
902.986328	18964.533203
901.839844	18794.587891
900.692383	18635.615234
899.545898	18779.609375
898.398438	18816.783203
897.250000	19115.316406
896.102539	18943.341797
894.954102	19023.992188
893.805664	18856.466797
892.656250	18841.345703
891.507813	18869.744141
890.358398	18959.033203
889.208984	18778.617188
888.058594	18883.103516
886.908203	18907.111328
885.758789	18887.644531
884.607422	18759.544922
883.457031	18774.873047
882.305664	18883.576172
881.154297	18848.925781
880.002930	18553.792969
878.850586	18788.347656
877.698242	18918.642578
876.545898	18554.269531
875.393555	18665.037109
874.240234	18500.371094
873.086914	18376.966797
871.933594	18403.166016
870.780273	18552.865234
869.625977	18403.531250
868.471680	18568.318359
867.317383	18297.783203
866.162109	18614.062500
865.007813	18421.554688
863.852539	18659.757813
862.696289	18432.708984
861.541016	18140.869141
860.384766	18385.458984
859.228516	18312.121094
858.072266	18327.437500
856.915039	18392.447266
855.757813	18325.634766
854.600586	18107.648438
853.442383	18233.128906
852.285156	18293.777344
851.126953	18268.054688
849.968750	18846.607422
848.809570	18559.697266
847.650391	18570.597656
846.491211	18475.816406
845.332031	18460.853516
844.171875	18353.203125
843.012695	18411.548828
841.851563	18273.789063
840.691406	18413.982422
839.530273	18401.195313
838.369141	18638.187500
837.208008	18347.652344
836.046875	18403.755859
834.884766	18479.199219
833.722656	18543.851563
832.560547	18735.367188
831.397461	18191.398438
830.234375	18664.527344
829.071289	18509.841797
827.908203	18533.578125
826.744141	18542.261719
825.580078	18327.566406
824.416016	18465.132813
823.251953	18587.605469
822.086914	18433.138672
820.921875	18431.099609
819.756836	18600.691406
818.590820	18680.119141
817.425781	18697.320313
816.259766	18605.169922
815.092773	18380.166016
813.926758	18547.427734
812.759766	18571.064453
811.592773	18586.121094
810.424805	18269.234375
809.257813	18603.361328
808.089844	18485.681641
806.920898	18569.220703
805.752930	18472.994141
804.583984	18586.441406
803.415039	18624.982422
802.246094	18537.357422
801.076172	18479.697266
799.906250	18462.667969
798.736328	18449.917969
797.566406	18550.388672
796.395508	18597.419922
795.224609	18676.455078
794.053711	18857.919922
792.881836	19124.667969
791.710938	18979.484375
790.538086	19286.611328
789.366211	19749.287109
788.194336	20105.138672
787.021484	20588.732422
785.848633	20439.109375
784.674805	20572.951172
783.500977	20397.832031
782.327148	20316.503906
781.153320	20075.511719
779.979492	19849.529297
778.804688	19676.857422
777.629883	19668.109375
776.454102	19599.796875
775.279297	19267.777344
774.103516	19369.699219
772.927734	19458.816406
771.750977	19564.896484
770.575195	19736.800781
769.398438	19564.457031
768.220703	19976.291016
767.043945	20258.402344
765.866211	20642.287109
764.688477	20399.843750
763.510742	20823.837891
762.332031	21298.552734
761.153320	21783.656250
759.974609	22752.035156
758.794922	23465.552734
757.616211	24876.105469
756.436523	26114.357422
755.255859	28343.580078
754.076172	30806.898438
752.895508	34448.648438
751.714844	38065.437500
750.533203	42296.535156
749.352539	47185.964844
748.170898	51681.734375
746.988281	55401.250000
745.806641	58065.886719
744.624023	59591.804688
743.441406	59011.644531
742.258789	58345.101563
741.075195	56423.820313
739.891602	55842.664063
738.708008	54343.093750
737.523438	53728.886719
736.339844	52872.199219
735.155273	52319.804688
733.969727	51307.687500
732.785156	49359.429688
731.599609	46751.949219
730.414063	43515.218750
729.227539	40033.332031
728.041992	36723.750000
726.855469	33095.414063
725.667969	30045.937500
724.481445	27867.671875
723.293945	26193.640625
722.106445	24490.904297
720.918945	23523.462891
719.730469	22701.652344
718.541992	22170.521484
717.353516	21385.150391
716.164063	21203.609375
714.975586	20906.531250
713.786133	20472.972656
712.595703	20340.091797
711.406250	19848.041016
710.215820	19799.373047
709.025391	19855.714844
707.833984	19563.542969
706.642578	19504.476563
705.451172	19489.500000
704.259766	19709.488281
703.068359	19669.300781
701.875977	19861.884766
700.683594	20310.142578
699.490234	20848.318359
698.297852	21430.250000
697.104492	22169.035156
695.910156	22878.156250
694.716797	23844.511719
693.522461	24590.599609
692.328125	24482.378906
691.132813	25184.029297
689.938477	24657.302734
688.743164	24603.517578
687.547852	24010.246094
686.351563	23833.283203
685.155273	23056.525391
683.958984	22909.115234
682.762695	21842.527344
681.565430	21720.525391
680.368164	21222.697266
679.170898	21115.505859
677.973633	20887.302734
676.775391	20928.396484
675.577148	20913.140625
674.378906	20895.804688
673.179688	20590.697266
671.980469	20577.609375
670.781250	20216.433594
669.581055	20124.248047
668.381836	19821.675781
667.181641	19850.431641
665.980469	19560.554688
664.780273	19578.943359
663.579102	19530.712891
662.377930	19503.316406
661.175781	19330.291016
659.973633	19230.146484
658.771484	19402.472656
657.569336	19094.445313
656.367188	19491.210938
655.164063	19802.587891
653.960938	20005.781250
652.756836	20609.773438
651.552734	20632.011719
650.348633	21054.947266
649.144531	21313.703125
647.939453	21530.833984
646.735352	21951.189453
645.529297	21979.306641
644.324219	22181.611328
643.118164	22132.945313
641.912109	21935.054688
640.706055	22002.517578
639.499023	21636.921875
638.292969	21072.634766
637.084961	20871.023438
635.877930	20524.570313
634.669922	20271.425781
633.461914	19883.878906
632.253906	19570.996094
631.044922	19318.242188
629.836914	19655.007813
628.626953	19150.103516
627.417969	19184.949219
626.208008	19091.646484
624.998047	19012.847656
623.788086	18913.427734
622.577148	18805.791016
621.366211	18720.914063
620.155273	18592.728516
618.944336	18571.914063
617.732422	18348.908203
616.520508	18229.142578
615.308594	18099.121094
614.095703	18387.716797
612.882813	18294.820313
611.669922	18080.371094
610.457031	17915.472656
609.243164	18158.517578
608.029297	18065.755859
606.815430	17983.330078
605.600586	18038.863281
604.385742	17960.595703
603.170898	18057.257813
601.955078	18227.927734
600.740234	18229.876953
599.524414	18217.429688
598.307617	18104.257813
597.091797	18509.046875
595.875000	18136.964844
594.658203	18280.667969
593.440430	18475.646484
592.222656	18280.410156
591.004883	18473.244141
589.787109	18319.142578
588.568359	18273.859375
587.349609	18121.923828
586.130859	17814.189453
584.912109	17805.958984
583.692383	17853.080078
582.472656	17805.902344
581.251953	17947.253906
580.032227	17893.929688
578.811523	18090.490234
577.589844	17981.869141
576.369141	18223.351563
575.147461	18655.058594
573.925781	18924.917969
572.703125	19321.484375
571.481445	19838.531250
570.258789	19983.197266
569.035156	20452.830078
567.812500	21093.923828
566.588867	21017.513672
565.365234	21376.263672
564.140625	21851.261719
562.916992	21995.250000
561.692383	22104.466797
560.466797	22091.175781
559.242188	21690.199219
558.016602	21619.886719
556.791016	20790.902344
555.564453	20561.783203
554.337891	20124.833984
553.111328	19657.515625
551.884766	18954.044922
550.657227	18637.962891
549.429688	18454.408203
548.202148	18055.099609
546.974609	18148.625000
545.746094	17991.769531
544.517578	17873.644531
543.288086	17539.935547
542.058594	17680.267578
540.829102	17790.033203
539.599609	17649.699219
538.370117	17704.542969
537.139648	17478.949219
535.909180	17543.962891
534.677734	17395.687500
533.446289	17353.068359
532.214844	17738.816406
530.983398	17645.394531
529.750977	17381.568359
528.519531	17485.052734
527.286133	17237.611328
526.053711	17063.279297
524.820313	17369.488281
523.586914	17071.572266
522.353516	17252.001953
521.119141	17098.083984
519.884766	17173.103516
518.650391	17084.070313
517.415039	17098.324219
516.179688	17193.527344
514.944336	17177.394531
513.708984	17078.324219
