#Wave		#Intensity
1585.210938	18065.472656
1584.209961	17900.626953
1583.208984	17936.873047
1582.208008	17740.917969
1581.206055	17941.921875
1580.204102	17875.816406
1579.202148	17862.132813
1578.200195	17968.191406
1577.198242	17852.238281
1576.195313	18195.138672
1575.192383	18056.748047
1574.189453	18224.988281
1573.186523	18276.037109
1572.182617	18152.662109
1571.178711	17785.226563
1570.174805	18055.488281
1569.170898	17730.552734
1568.166992	18082.863281
1567.162109	17902.408203
1566.158203	18090.302734
1565.153320	17952.214844
1564.147461	18072.863281
1563.142578	18016.896484
1562.136719	17968.414063
1561.130859	17887.632813
1560.125000	18535.068359
1559.119141	18655.466797
1558.113281	18952.195313
1557.106445	18965.658203
1556.099609	19426.089844
1555.092773	19655.439453
1554.084961	19542.154297
1553.078125	19997.214844
1552.070313	20139.462891
1551.062500	20036.068359
1550.054688	20143.523438
1549.045898	19963.302734
1548.038086	19996.355469
1547.029297	19727.007813
1546.020508	19616.365234
1545.011719	19560.275391
1544.001953	19323.384766
1542.992188	19227.751953
1541.982422	19010.833984
1540.972656	18845.990234
1539.962891	18577.265625
1538.952148	18610.535156
1537.942383	18435.978516
1536.931641	18553.361328
1535.919922	18336.847656
1534.909180	18199.539063
1533.897461	18079.591797
1532.886719	18140.105469
1531.874023	17997.978516
1530.862305	17769.447266
1529.850586	18059.683594
1528.837891	17668.253906
1527.825195	18025.048828
1526.812500	17925.050781
1525.799805	17506.744141
1524.786133	17685.701172
1523.772461	17593.234375
1522.758789	17466.277344
1521.745117	17341.835938
1520.731445	17488.626953
1519.716797	17613.173828
1518.702148	17493.707031
1517.687500	17317.621094
1516.672852	17412.564453
1515.657227	17258.732422
1514.642578	17518.615234
1513.626953	17591.298828
1512.610352	17186.482422
1511.594727	17473.283203
1510.579102	17568.070313
1509.562500	17306.167969
1508.545898	17590.304688
1507.529297	17227.699219
1506.511719	17406.033203
1505.494141	17306.580078
1504.477539	17386.537109
1503.458984	17409.957031
1502.441406	17597.927734
1501.423828	17594.281250
1500.405273	17615.187500
1499.386719	17653.265625
1498.368164	17652.062500
1497.348633	17746.546875
1496.330078	17737.962891
1495.310547	18060.476563
1494.291016	18042.021484
1493.271484	17812.742188
1492.250977	17813.953125
1491.231445	17952.390625
1490.210938	17933.970703
1489.190430	18069.875000
1488.168945	17928.986328
1487.148438	17697.562500
1486.126953	17924.003906
1485.105469	17704.912109
1484.083984	18124.564453
1483.061523	18052.306641
1482.040039	17994.753906
1481.017578	18135.302734
1479.995117	18512.951172
1478.971680	18560.445313
1477.949219	18918.294922
1476.925781	18953.466797
1475.902344	19140.082031
1474.878906	19060.398438
1473.855469	19456.916016
1472.831055	19692.134766
1471.806641	20090.792969
1470.782227	20089.066406
1469.757813	20836.375000
1468.733398	21078.427734
1467.708008	21983.744141
1466.682617	22205.949219
1465.657227	22783.984375
1464.631836	23883.365234
1463.605469	24231.750000
1462.579102	25237.791016
1461.552734	25783.046875
1460.526367	26086.980469
1459.500000	26534.439453
1458.472656	26692.029297
1457.445313	26596.437500
1456.417969	26359.755859
1455.390625	26142.632813
1454.362305	25429.412109
1453.334961	25188.251953
1452.306641	24159.460938
1451.277344	23673.154297
1450.249023	23250.234375
1449.219727	22545.638672
1448.191406	22353.904297
1447.162109	21402.052734
1446.131836	21407.320313
1445.102539	20679.410156
1444.072266	20575.597656
1443.041992	20646.550781
1442.011719	20307.443359
1440.981445	20194.066406
1439.950195	19830.939453
1438.918945	19686.185547
1437.887695	19682.093750
1436.856445	19408.972656
1435.825195	19288.625000
1434.792969	19085.953125
1433.760742	18926.966797
1432.728516	18847.958984
1431.696289	18986.888672
1430.663086	18660.992188
1429.629883	18487.699219
1428.596680	18437.880859
1427.563477	18298.572266
1426.530273	18318.953125
1425.496094	18041.888672
1424.461914	18154.183594
1423.427734	17944.949219
1422.393555	17805.882813
1421.358398	18150.101563
1420.323242	17745.328125
1419.288086	17635.369141
1418.252930	17839.357422
1417.217773	17603.886719
1416.181641	17988.816406
1415.145508	17688.255859
1414.109375	17759.365234
1413.073242	18045.121094
1412.036133	17766.439453
1411.000000	18203.974609
1409.962891	18528.027344
1408.924805	18876.044922
1407.887695	18997.412109
1406.849609	19627.050781
1405.812500	20386.492188
1404.773438	20765.132813
1403.735352	21247.142578
1402.697266	21762.648438
1401.658203	22234.621094
1400.619141	22744.890625
1399.580078	22711.283203
1398.540039	22898.955078
1397.500977	22983.150391
1396.460938	23033.652344
1395.420898	22718.783203
1394.380859	22697.224609
1393.339844	22192.750000
1392.298828	22015.169922
1391.257813	21856.875000
1390.216797	21811.494141
1389.175781	21576.486328
1388.133789	21828.792969
1387.091797	22258.562500
1386.049805	22395.460938
1385.007813	22803.341797
1383.964844	23326.160156
1382.922852	24263.539063
1381.879883	24939.244141
1380.835938	25545.162109
1379.792969	26237.085938
1378.749023	26988.609375
1377.706055	27272.775391
1376.661133	27473.009766
1375.617188	27795.257813
1374.573242	27796.630859
1373.528320	27874.578125
1372.483398	27500.294922
1371.438477	27556.738281
1370.392578	26984.173828
1369.347656	26715.511719
1368.301758	26363.291016
1367.255859	26020.777344
1366.208984	25217.214844
1365.163086	24538.218750
1364.116211	24117.472656
1363.069336	23885.558594
1362.022461	23668.066406
1360.974609	23422.017578
1359.927734	23102.085938
1358.879883	22725.021484
1357.832031	23011.304688
1356.783203	23187.751953
1355.735352	22767.978516
1354.686523	23499.892578
1353.637695	23506.886719
1352.588867	24171.609375
1351.539063	24042.650391
1350.490234	24969.007813
1349.440430	25861.632813
1348.390625	26661.019531
1347.339844	27552.912109
1346.290039	28382.546875
1345.239258	29121.406250
1344.188477	29843.300781
1343.137695	31100.074219
1342.085938	32037.654297
1341.034180	32796.519531
1339.982422	33312.597656
1338.930664	33856.980469
1337.878906	34586.464844
1336.826172	34821.515625
1335.773438	34909.210938
1334.720703	34909.007813
1333.667969	34462.468750
1332.614258	34172.773438
1331.561523	33785.898438
1330.507813	33586.621094
1329.453125	33157.332031
1328.399414	32130.572266
1327.344727	31495.476563
1326.290039	30739.744141
1325.235352	30304.292969
1324.180664	29873.761719
1323.125000	29277.570313
1322.070313	28743.212891
1321.014648	28346.427734
1319.958008	28020.835938
1318.902344	27413.693359
1317.845703	27097.896484
1316.789063	26640.265625
1315.732422	26350.783203
1314.675781	25600.220703
1313.618164	25351.273438
1312.560547	25014.957031
1311.502930	24683.507813
1310.445313	24177.324219
1309.386719	23685.527344
1308.329102	23333.302734
1307.270508	22745.060547
1306.210938	22438.041016
1305.152344	21937.574219
1304.092773	21678.054688
1303.033203	21472.914063
1301.973633	21312.681641
1300.914063	21022.791016
1299.853516	20749.525391
1298.792969	20462.230469
1297.732422	20490.914063
1296.671875	20076.529297
1295.611328	19940.347656
1294.549805	20046.857422
1293.488281	19969.615234
1292.426758	19579.232422
1291.364258	19699.871094
1290.302734	19615.685547
1289.240234	19427.994141
1288.177734	19499.177734
1287.114258	19678.531250
1286.051758	19646.152344
1284.988281	19724.294922
1283.924805	19811.804688
1282.861328	20056.740234
1281.796875	20534.191406
1280.732422	20783.566406
1279.667969	21650.548828
1278.603516	21697.632813
1277.539063	22343.365234
1276.473633	22782.265625
1275.408203	22962.837891
1274.342773	23499.960938
1273.277344	23457.455078
1272.210938	23147.607422
1271.145508	23243.531250
1270.079102	22943.234375
1269.011719	22331.341797
1267.945313	22183.673828
1266.877930	22104.005859
1265.810547	21038.273438
1264.743164	20778.562500
1263.674805	20547.054688
1262.607422	19831.101563
1261.539063	19597.550781
1260.470703	19216.689453
1259.401367	18756.451172
1258.333008	18527.949219
1257.263672	18402.427734
1256.194336	18335.402344
1255.125000	17994.939453
1254.054688	17984.109375
1252.985352	17734.980469
1251.915039	17593.402344
1250.843750	17629.367188
1249.773438	17364.121094
1248.702148	17332.421875
1247.630859	17240.054688
1246.559570	17474.392578
1245.488281	17440.351563
1244.416016	17294.373047
1243.343750	17348.992188
1242.271484	17520.156250
1241.199219	17472.144531
1240.125977	17081.587891
1239.053711	17350.550781
1237.980469	17141.873047
1236.906250	17284.945313
1235.833008	17386.044922
1234.758789	17298.541016
1233.684570	17429.847656
1232.610352	17519.212891
1231.536133	17689.962891
1230.460938	17537.335938
1229.385742	17459.187500
1228.310547	17508.941406
1227.235352	17570.294922
1226.159180	17522.396484
1225.083008	17383.902344
1224.006836	17517.248047
1222.930664	17557.640625
1221.853516	17449.408203
1220.777344	17670.867188
1219.700195	17177.376953
1218.622070	17477.691406
1217.544922	17473.962891
1216.466797	17338.023438
1215.388672	17332.003906
1214.310547	17627.386719
1213.232422	17725.613281
1212.153320	17596.683594
1211.074219	17789.869141
1209.995117	17760.585938
1208.916016	17828.587891
1207.835938	17956.761719
1206.755859	17911.251953
1205.675781	17907.423828
1204.595703	18114.169922
1203.514648	18061.712891
1202.434570	17766.406250
1201.353516	18174.238281
1200.271484	18322.943359
1199.190430	18291.285156
1198.108398	18014.664063
1197.026367	17664.224609
1195.944336	17526.458984
1194.862305	17444.179688
1193.779297	17428.898438
1192.696289	17134.283203
1191.613281	17054.445313
1190.530273	16778.494141
1189.446289	16848.724609
1188.362305	16619.066406
1187.278320	16401.035156
1186.194336	16256.875000
1185.109375	16451.628906
1184.024414	16337.477539
1182.939453	16294.801758
1181.854492	15713.092773
1180.768555	15937.731445
1179.683594	15908.980469
1178.597656	15868.730469
1177.510742	15676.586914
1176.424805	15767.567383
1175.337891	15566.322266
1174.250977	15622.782227
1173.164063	15584.929688
1172.077148	15540.194336
1170.989258	15465.594727
1169.901367	15315.184570
1168.813477	15458.944336
1167.724609	15591.154297
1166.636719	15587.800781
1165.547852	15529.336914
1164.458984	15592.571289
1163.369141	15582.329102
1162.280273	15503.248047
1161.190430	15382.904297
1160.100586	15457.578125
1159.010742	15481.768555
1157.919922	15808.590820
1156.829102	15511.774414
1155.738281	15742.192383
1154.647461	15633.400391
1153.555664	15785.802734
1152.464844	15910.655273
1151.373047	15985.077148
1150.280273	16080.069336
1149.188477	16310.058594
1148.095703	16240.178711
1147.002930	16259.551758
1145.910156	16404.718750
1144.817383	16396.603516
1143.723633	16420.498047
1142.629883	16455.810547
1141.536133	16212.294922
1140.441406	16293.332031
1139.347656	16113.915039
1138.252930	16096.728516
1137.158203	15931.128906
1136.062500	15943.665039
1134.967773	15723.390625
1133.872070	15811.265625
1132.776367	15846.628906
1131.679688	15485.097656
1130.583984	15652.777344
1129.487305	15599.231445
1128.390625	15723.502930
1127.292969	15710.982422
1126.196289	15757.706055
1125.098633	15601.669922
1124.000977	15625.619141
1122.903320	15549.371094
1121.804688	15703.077148
1120.706055	15656.429688
1119.607422	15621.178711
1118.508789	15945.389648
1117.409180	15682.639648
1116.310547	15661.045898
1115.210938	15559.886719
1114.110352	15472.409180
1113.010742	15205.438477
1111.910156	15422.524414
1110.809570	15494.136719
1109.708984	15552.089844
1108.607422	15491.949219
1107.506836	15327.409180
1106.405273	15380.818359
1105.303711	15323.018555
1104.201172	15081.487305
1103.098633	15184.808594
1101.996094	15029.578125
1100.893555	15035.377930
1099.791016	15168.103516
1098.687500	14895.136719
1097.583984	14853.380859
1096.480469	15020.032227
1095.376953	14833.327148
1094.272461	14857.267578
1093.167969	14899.305664
1092.063477	14959.428711
1090.958008	14775.157227
1089.853516	14776.462891
1088.748047	14859.186523
1087.642578	14878.559570
1086.536133	14832.362305
1085.430664	14982.822266
1084.324219	14914.023438
1083.217773	14822.661133
1082.110352	14711.008789
1081.003906	15023.950195
1079.896484	14788.125000
1078.789063	14906.788086
1077.680664	15050.221680
1076.573242	15094.317383
1075.464844	14948.908203
1074.356445	15225.294922
1073.247070	15197.166016
1072.138672	15128.471680
1071.029297	15237.854492
1069.919922	15015.953125
1068.809570	15125.310547
1067.700195	14928.304688
1066.589844	15102.932617
1065.479492	14888.003906
1064.368164	15098.576172
1063.257813	14996.256836
1062.146484	14846.734375
1061.035156	14910.964844
1059.922852	15119.092773
1058.811523	14823.493164
1057.699219	14847.220703
1056.586914	14758.567383
1055.473633	14836.221680
1054.361328	14895.869141
1053.248047	14661.275391
1052.134766	14756.859375
1051.021484	14760.357422
1049.907227	14952.385742
1048.792969	14872.811523
1047.678711	14932.365234
1046.564453	14913.387695
1045.449219	14780.051758
1044.333984	14682.643555
1043.218750	14856.497070
1042.103516	14976.488281
1040.987305	15114.349609
1039.871094	14951.988281
1038.754883	15036.043945
1037.638672	15140.211914
1036.521484	15255.525391
1035.404297	15028.369141
1034.287109	15119.040039
1033.169922	15312.575195
1032.051758	15579.830078
1030.933594	15388.572266
1029.815430	15561.795898
1028.697266	15448.852539
1027.578125	15563.884766
1026.458984	15533.648438
1025.339844	15597.235352
1024.220703	15721.086914
1023.100586	15902.930664
1021.980469	15794.516602
1020.860352	15567.873047
1019.740234	16142.306641
1018.619141	16036.137695
1017.498047	16048.212891
1016.376953	16220.817383
1015.255859	15898.466797
1014.133789	16117.828125
1013.011719	16152.150391
1011.889648	16028.290039
1010.767578	16082.659180
1009.644531	15909.877930
1008.521484	15788.374023
1007.398438	16025.265625
1006.274414	15752.471680
1005.151367	15817.958008
1004.027344	16001.300781
1002.902344	15713.122070
1001.778320	15725.210938
1000.653320	15623.931641
999.528320	15580.474609
998.403320	15637.016602
997.278320	15631.335938
996.152344	15485.745117
995.026367	15426.809570
993.900391	15336.821289
992.773438	15672.985352
991.646484	15330.030273
990.519531	15124.764648
989.392578	15489.580078
988.265625	15421.844727
987.137695	15507.102539
986.009766	15621.133789
984.881836	15759.489258
983.752930	15680.670898
982.624023	15894.255859
981.495117	15667.073242
980.366211	15681.308594
979.236328	15834.984375
978.106445	15698.692383
976.976563	15728.395508
975.846680	15519.190430
974.715820	15478.149414
973.585938	15377.428711
972.454102	15482.327148
971.323242	15167.276367
970.191406	15457.771484
969.060547	15416.783203
967.927734	15437.650391
966.795898	15462.922852
965.663086	15516.880859
964.530273	15497.980469
963.397461	15708.570313
962.264648	16020.544922
961.130859	16140.493164
959.997070	16103.824219
958.863281	16228.106445
957.729492	16414.046875
956.594727	16167.994141
955.459961	16168.798828
954.325195	16200.439453
953.189453	15950.189453
952.053711	15785.914063
950.917969	15579.887695
949.782227	15525.798828
948.646484	15383.725586
947.509766	15323.102539
946.373047	15306.490234
945.235352	15292.082031
944.098633	15196.344727
942.960938	15313.829102
941.823242	15306.016602
940.685547	15296.009766
939.546875	15608.856445
938.408203	15484.603516
937.269531	15654.572266
936.129883	15580.841797
934.991211	15570.778320
933.851563	15635.306641
932.711914	15596.718750
931.571289	15891.458008
930.431641	15736.632813
929.291016	15853.666016
928.149414	16016.664063
927.008789	15999.935547
925.867188	16020.450195
924.725586	15881.091797
923.583984	15864.401367
922.441406	15797.371094
921.299805	15515.905273
920.157227	15300.201172
919.013672	15163.340820
917.871094	15105.269531
916.727539	14870.121094
915.583984	14707.212891
914.439453	14605.570313
913.295898	14663.475586
912.151367	14795.626953
911.006836	14532.412109
909.861328	14743.137695
908.716797	14547.724609
907.571289	14614.301758
906.424805	14842.320313
905.279297	14788.812500
904.132813	14554.299805
902.986328	14599.004883
901.839844	14735.252930
900.692383	14609.885742
899.545898	14484.574219
898.398438	14718.790039
897.250000	14931.118164
896.102539	14855.900391
894.954102	14782.892578
893.805664	14709.916016
892.656250	14763.188477
891.507813	14646.733398
890.358398	14539.029297
889.208984	14698.861328
888.058594	14754.258789
886.908203	14713.985352
885.758789	14569.413086
884.607422	14368.412109
883.457031	14271.770508
882.305664	14466.188477
881.154297	14541.096680
880.002930	14212.201172
878.850586	14122.187500
877.698242	14223.156250
876.545898	14219.951172
875.393555	14015.043945
874.240234	14217.877930
873.086914	14169.146484
871.933594	14191.959961
870.780273	14143.254883
869.625977	14140.064453
868.471680	14290.653320
867.317383	13999.427734
866.162109	14033.072266
865.007813	14068.864258
863.852539	14072.179688
862.696289	14345.925781
861.541016	14117.736328
860.384766	14270.247070
859.228516	14078.929688
858.072266	13954.704102
856.915039	14135.237305
855.757813	13991.607422
854.600586	13943.083984
853.442383	14110.536133
852.285156	13928.143555
851.126953	14097.679688
849.968750	14137.652344
848.809570	14216.443359
847.650391	14047.128906
846.491211	14091.395508
845.332031	13909.247070
844.171875	14097.951172
843.012695	14234.844727
841.851563	13919.193359
840.691406	14034.521484
839.530273	14076.570313
838.369141	13883.898438
837.208008	14279.006836
836.046875	14228.421875
834.884766	14106.850586
833.722656	14234.879883
832.560547	14055.289063
831.397461	14157.465820
830.234375	14167.154297
829.071289	14226.270508
827.908203	14315.442383
826.744141	14310.045898
825.580078	14150.005859
824.416016	14236.984375
823.251953	14199.402344
822.086914	14148.958008
820.921875	14248.749023
819.756836	14281.984375
818.590820	14070.683594
817.425781	14106.086914
816.259766	14062.147461
815.092773	14084.673828
813.926758	14158.620117
812.759766	14346.083008
811.592773	14122.196289
810.424805	14086.862305
809.257813	14235.671875
808.089844	14056.910156
806.920898	14049.432617
805.752930	14116.842773
804.583984	14047.319336
803.415039	13950.024414
802.246094	14070.859375
801.076172	14012.079102
799.906250	14141.390625
798.736328	14146.717773
797.566406	13870.068359
796.395508	14080.476563
795.224609	14320.680664
794.053711	14620.544922
792.881836	14455.013672
791.710938	14487.993164
790.538086	14657.483398
789.366211	14820.497070
788.194336	14800.060547
787.021484	15035.445313
785.848633	15098.086914
784.674805	14623.734375
783.500977	14767.391602
782.327148	14593.635742
781.153320	14428.475586
779.979492	14380.476563
778.804688	14472.971680
777.629883	14252.623047
776.454102	14277.026367
775.279297	14363.096680
774.103516	14111.024414
772.927734	14158.824219
771.750977	14208.727539
770.575195	14383.979492
769.398438	14378.569336
768.220703	14252.090820
767.043945	14437.828125
765.866211	14372.959961
764.688477	14350.571289
763.510742	14480.980469
762.332031	14467.061523
761.153320	14705.558594
759.974609	14702.195313
758.794922	14885.403320
757.616211	14962.544922
756.436523	15378.714844
755.255859	15436.636719
754.076172	16072.796875
752.895508	16452.421875
751.714844	16764.121094
750.533203	17556.173828
749.352539	18341.515625
748.170898	19253.439453
746.988281	20101.488281
745.806641	22184.185547
744.624023	23437.117188
743.441406	26164.921875
742.258789	29533.931641
741.075195	33444.398438
739.891602	38434.605469
738.708008	43912.480469
737.523438	48680.519531
736.339844	52171.375000
735.155273	55135.125000
733.969727	56131.039063
732.785156	54808.183594
731.599609	52220.542969
730.414063	47660.531250
729.227539	43077.308594
728.041992	37353.902344
726.855469	32252.593750
725.667969	28594.515625
724.481445	25079.218750
723.293945	22700.453125
722.106445	20889.052734
720.918945	19566.757813
719.730469	18533.335938
718.541992	17473.039063
717.353516	16995.810547
716.164063	16487.257813
714.975586	16157.626953
713.786133	15615.870117
712.595703	15145.804688
711.406250	14967.959961
710.215820	14996.024414
709.025391	14891.786133
707.833984	14474.796875
706.642578	14410.602539
705.451172	14314.961914
704.259766	14290.690430
703.068359	14335.643555
701.875977	14416.222656
700.683594	14293.410156
699.490234	14241.915039
698.297852	14232.351563
697.104492	14591.506836
695.910156	14571.393555
694.716797	15032.910156
693.522461	15236.708984
692.328125	15310.644531
691.132813	15436.858398
689.938477	15460.500977
688.743164	15463.214844
687.547852	15633.216797
686.351563	15660.975586
685.155273	15508.966797
683.958984	15344.489258
682.762695	15221.870117
681.565430	15078.418945
680.368164	14851.502930
679.170898	14733.253906
677.973633	14740.294922
676.775391	14421.791992
675.577148	14579.113281
674.378906	14523.605469
673.179688	14516.086914
671.980469	14421.004883
670.781250	14521.898438
669.581055	14437.277344
668.381836	14431.863281
667.181641	14457.695313
665.980469	14608.461914
664.780273	14465.599609
663.579102	14709.959961
662.377930	14800.210938
661.175781	14961.158203
659.973633	15144.910156
658.771484	15237.075195
657.569336	15337.512695
656.367188	15579.249023
655.164063	15795.934570
653.960938	16193.275391
652.756836	16432.566406
651.552734	16524.298828
650.348633	16873.441406
649.144531	17185.056641
647.939453	17120.904297
646.735352	17328.576172
645.529297	16876.523438
644.324219	17082.080078
643.118164	17080.207031
641.912109	17092.841797
640.706055	17418.400391
639.499023	17362.578125
638.292969	17426.921875
637.084961	17265.500000
635.877930	17178.691406
634.669922	17429.328125
633.461914	17388.046875
632.253906	17506.099609
631.044922	17396.554688
629.836914	17340.830078
628.626953	17394.710938
627.417969	17252.191406
626.208008	16878.271484
624.998047	16715.271484
623.788086	16599.857422
622.577148	16352.322266
621.366211	16327.891602
620.155273	15785.343750
618.944336	15787.881836
617.732422	15373.631836
616.520508	15363.885742
615.308594	15007.668945
614.095703	14919.658203
612.882813	14656.469727
611.669922	14657.198242
610.457031	14247.899414
609.243164	14026.245117
608.029297	14041.533203
606.815430	13883.856445
605.600586	13925.928711
604.385742	13686.028320
603.170898	13798.082031
601.955078	13829.857422
600.740234	13869.842773
599.524414	13755.597656
598.307617	13614.681641
597.091797	13777.998047
595.875000	13877.541992
594.658203	13820.916016
593.440430	13809.499023
592.222656	13689.261719
591.004883	13850.313477
589.787109	13939.458984
588.568359	13909.554688
587.349609	13910.433594
586.130859	13581.115234
584.912109	14051.617188
583.692383	13839.263672
582.472656	14057.399414
581.251953	14060.288086
580.032227	14186.085938
578.811523	14371.217773
577.589844	14154.937500
576.369141	14477.145508
575.147461	14512.674805
573.925781	14537.955078
572.703125	14624.593750
571.481445	14770.502930
570.258789	14844.777344
569.035156	15062.114258
567.812500	15166.941406
566.588867	15134.817383
565.365234	15584.816406
564.140625	15266.677734
562.916992	15248.842773
561.692383	15371.873047
560.466797	15554.032227
559.242188	15138.249023
558.016602	15059.256836
556.791016	15021.090820
555.564453	14940.122070
554.337891	14838.803711
553.111328	14755.874023
551.884766	14567.025391
550.657227	14557.534180
549.429688	14444.174805
548.202148	14556.886719
546.974609	14453.756836
545.746094	14242.804688
544.517578	14367.691406
543.288086	14466.073242
542.058594	14371.192383
540.829102	14217.386719
539.599609	14610.502930
538.370117	14519.716797
537.139648	14443.196289
535.909180	14348.425781
534.677734	14152.148438
533.446289	14469.690430
532.214844	14042.044922
530.983398	13947.452148
529.750977	13976.680664
528.519531	13973.435547
527.286133	13816.048828
526.053711	13958.837891
524.820313	13917.079102
523.586914	14080.043945
522.353516	13892.380859
521.119141	13947.904297
519.884766	13952.767578
518.650391	13864.481445
517.415039	13873.409180
516.179688	13740.654297
514.944336	13707.111328
513.708984	13730.228516
