#Wave		#Intensity
2109.224609	6642.333496
2107.712891	6660.526855
2106.201172	6657.433105
2104.687500	6698.978027
2103.175781	6557.034180
2101.662109	6667.989746
2100.150391	6613.679199
2098.636719	6562.696289
2097.123047	6582.748047
2095.607422	6535.096191
2094.093750	6489.115234
2092.578125	6586.739258
2091.064453	6400.513672
2089.548828	6524.509277
2088.033203	6471.973633
2086.517578	6478.823242
2085.000000	6409.833496
2083.484375	6497.458984
2081.966797	6407.072266
2080.449219	6333.200195
2078.931641	6313.717773
2077.414063	6356.823730
2075.894531	6355.455566
2074.376953	6312.935059
2072.857422	6323.097656
2071.337891	6338.192383
2069.818359	6396.052246
2068.298828	6348.625488
2066.777344	6261.753906
2065.257813	6270.272949
2063.736328	6344.534668
2062.214844	6132.828613
2060.693359	6289.235352
2059.171875	6314.166992
2057.648438	6352.226074
2056.126953	6309.815918
2054.603516	6142.666016
2053.080078	6444.969727
2051.556641	6322.165527
2050.033203	6384.789063
2048.507813	6232.527832
2046.984375	6259.068848
2045.458984	6246.251953
2043.933594	6190.824219
2042.408203	6302.570801
2040.882813	6410.993164
2039.355469	6290.044434
2037.830078	6233.017090
2036.302734	6166.189941
2034.775391	6212.343262
2033.248047	6220.833984
2031.718750	6325.861816
2030.191406	6227.989258
2028.662109	6293.716797
2027.134766	6217.150879
2025.605469	6173.315430
2024.076172	6204.687012
2022.544922	6146.165039
2021.015625	6345.813965
2019.484375	6383.662598
2017.955078	6267.979980
2016.423828	6256.845215
2014.892578	6263.672363
2013.359375	6239.486328
2011.828125	6238.154785
2010.294922	6277.609375
2008.761719	6375.764160
2007.230469	6230.902832
2005.695313	6322.504395
2004.162109	6283.666504
2002.628906	6257.882324
2001.093750	6225.591797
1999.558594	6194.943848
1998.023438	6319.027344
1996.488281	6340.477051
1994.953125	6306.568359
1993.417969	6301.970215
1991.880859	6412.907227
1990.343750	6356.228027
1988.806641	6283.307617
1987.269531	6368.158691
1985.732422	6350.544922
1984.193359	6233.783691
1982.656250	6299.088867
1981.117188	6289.625000
1979.578125	6312.654297
1978.039063	6381.148926
1976.500000	6340.821777
1974.958984	6407.657715
1973.417969	6302.418457
1971.878906	6317.306641
1970.337891	6304.607422
1968.796875	6227.031738
1967.253906	6253.277832
1965.712891	6362.201660
1964.169922	6347.882813
1962.626953	6255.777344
1961.083984	6312.780762
1959.541016	6298.480469
1957.998047	6274.468750
1956.455078	6135.497070
1954.910156	6213.523438
1953.365234	6278.567383
1951.820313	6160.720703
1950.275391	6368.125000
1948.730469	6355.451172
1947.183594	6239.279785
1945.638672	6205.618652
1944.091797	6189.753418
1942.544922	6204.603027
1940.998047	6180.665527
1939.449219	6059.807129
1937.902344	6215.194336
1936.353516	6128.291016
1934.804688	6249.693848
1933.255859	6219.314453
1931.707031	6046.933105
1930.158203	6123.098633
1928.607422	6204.070313
1927.058594	6168.887695
1925.507813	6099.858887
1923.957031	6175.947754
1922.406250	6152.075195
1920.853516	6168.498047
1919.302734	6146.248047
1917.750000	6056.356445
1916.197266	6121.100098
1914.644531	6193.866699
1913.091797	6128.167480
1911.539063	6173.541992
1909.984375	6154.536133
1908.431641	6170.929199
1906.876953	6134.239746
1905.322266	6087.917969
1903.767578	6120.390625
1902.210938	6109.452148
1900.656250	6121.015625
1899.099609	6089.194336
1897.542969	6102.363281
1895.986328	6044.863770
1894.429688	6173.641113
1892.873047	6032.675293
1891.314453	6034.609863
1889.755859	6169.725586
1888.199219	6052.913574
1886.640625	6106.167480
1885.080078	6056.768555
1883.521484	5959.292969
1881.960938	6142.368652
1880.402344	6075.364746
1878.841797	6027.615723
1877.281250	6088.815430
1875.720703	6209.247559
1874.158203	6129.475098
1872.597656	5988.903320
1871.035156	6005.243652
1869.472656	5944.767090
1867.910156	5991.506836
1866.347656	6113.404785
1864.783203	5974.582520
1863.220703	5944.541016
1861.656250	6066.370605
1860.091797	6039.518066
1858.527344	6046.231445
1856.962891	6025.784180
1855.396484	6075.620605
1853.832031	6013.657715
1852.265625	5966.089355
1850.699219	6105.291016
1849.132813	6222.091797
1847.566406	6073.993164
1845.998047	6055.164063
1844.431641	6020.394043
1842.863281	6073.334473
1841.294922	6016.257324
1839.726563	6132.927734
1838.156250	6023.277344
1836.587891	6111.220215
1835.017578	6211.867676
1833.449219	6078.382813
1831.878906	5938.584961
1830.306641	6026.470703
1828.736328	6057.026855
1827.166016	6074.841309
1825.593750	6059.241211
1824.021484	6070.685547
1822.449219	6063.042969
1820.876953	6001.352051
1819.304688	6033.462402
1817.730469	6040.133789
1816.158203	6075.399902
1814.583984	6047.113770
1813.009766	6061.717773
1811.435547	6046.147949
1809.859375	6063.920410
1808.285156	6034.072266
1806.708984	5993.129395
1805.132813	6026.765137
1803.556641	5981.082031
1801.980469	5992.504883
1800.404297	6032.459961
1798.826172	6072.397949
1797.248047	6085.377930
1795.671875	6111.027832
1794.093750	6059.047363
1792.513672	6059.351074
1790.935547	6110.323730
1789.355469	6055.208984
1787.777344	6031.771973
1786.197266	5998.850098
1784.617188	5942.210938
1783.035156	6073.820801
1781.455078	6026.677734
1779.873047	5977.972656
1778.292969	6068.392090
1776.710938	6007.055176
1775.128906	6054.768066
1773.544922	6107.199219
1771.962891	6012.725098
1770.378906	6006.717773
1768.794922	6079.648438
1767.212891	6068.893555
1765.626953	6002.911133
1764.042969	6039.508301
1762.458984	6120.255859
1760.873047	5980.182129
1759.287109	6012.029297
1757.701172	5913.022949
1756.115234	5996.879883
1754.529297	6020.824219
1752.941406	5995.920410
1751.355469	5971.027344
1749.767578	6035.903320
1748.179688	6028.330078
1746.591797	6042.796387
1745.001953	5934.505371
1743.414063	5961.571777
1741.824219	5980.761230
1740.234375	6018.814453
1738.644531	6088.299316
1737.054688	6008.408691
1735.462891	6077.865723
1733.873047	5969.725586
1732.281250	5974.747070
1730.689453	6048.878418
1729.097656	6061.732422
1727.505859	5922.284180
1725.912109	5936.728516
1724.320313	5955.875000
1722.726563	6114.659668
1721.132813	6155.721680
1719.539063	6223.428711
1717.945313	6146.844238
1716.349609	6123.594727
1714.755859	6067.439453
1713.160156	6023.843750
1711.564453	6089.938477
1709.968750	6098.047852
1708.371094	6236.138184
1706.775391	6010.915039
1705.177734	6125.483398
1703.580078	6099.144531
1701.982422	6197.997070
1700.384766	6071.530762
1698.787109	6129.680176
1697.187500	6144.019043
1695.587891	6270.918457
1693.990234	6364.938965
1692.390625	6244.819824
1690.789063	6257.558594
1689.189453	6374.952148
1687.587891	6279.894531
1685.988281	6227.035645
1684.386719	6208.543457
1682.785156	6272.779785
1681.181641	6244.922363
1679.580078	6324.724121
1677.976563	6299.985840
1676.373047	6339.195801
1674.769531	6233.389648
1673.166016	6384.829590
1671.562500	6425.553223
1669.957031	6350.957520
1668.353516	6379.208496
1666.748047	6605.245605
1665.142578	6530.658203
1663.537109	6596.214844
1661.929688	6635.283203
1660.324219	6736.580566
1658.716797	6780.269043
1657.109375	6884.602539
1655.501953	6981.115234
1653.894531	6951.645508
1652.285156	6961.050781
1650.677734	7035.726074
1649.068359	7130.569336
1647.458984	7051.378418
1645.849609	7259.559082
1644.240234	7231.617676
1642.628906	7368.254883
1641.019531	7467.581055
1639.408203	7512.548828
1637.796875	7503.193848
1636.185547	7481.432617
1634.572266	7492.248535
1632.960938	7622.450684
1631.347656	7630.130371
1629.734375	7664.153809
1628.121094	7868.613281
1626.507813	7750.747070
1624.894531	7653.066406
1623.279297	7710.282227
1621.664063	7914.555664
1620.048828	7984.073730
1618.433594	7928.208496
1616.818359	7909.500488
1615.203125	8014.552734
1613.585938	8060.789551
1611.968750	8130.199707
1610.351563	8164.023438
1608.734375	8217.924805
1607.117188	8259.440430
1605.498047	8387.455078
1603.878906	8609.634766
1602.261719	8519.774414
1600.640625	8962.614258
1599.021484	8886.609375
1597.402344	8826.068359
1595.781250	8947.622070
1594.162109	8990.449219
1592.541016	9111.915039
1590.919922	9011.284180
1589.296875	8890.654297
1587.675781	8988.941406
1586.052734	8999.349609
1584.429688	9140.708984
1582.806641	9077.143555
1581.183594	9195.324219
1579.560547	9274.961914
1577.935547	9365.339844
1576.312500	9494.154297
1574.687500	9358.259766
1573.062500	9314.723633
1571.435547	9145.087891
1569.810547	9093.925781
1568.183594	9108.891602
1566.558594	8804.147461
1564.931641	8656.276367
1563.304688	8563.777344
1561.675781	8300.816406
1560.048828	8524.791016
1558.419922	8492.257813
1556.791016	8541.096680
1555.162109	8471.739258
1553.533203	8726.170898
1551.904297	8955.947266
1550.273438	9158.017578
1548.642578	9165.255859
1547.011719	9183.221680
1545.380859	9173.588867
1543.750000	8892.719727
1542.119141	8984.271484
1540.486328	8963.962891
1538.853516	8833.398438
1537.220703	8637.051758
1535.587891	8652.037109
1533.955078	8461.933594
1532.320313	8417.273438
1530.685547	8314.499023
1529.052734	8323.419922
1527.416016	8190.125977
1525.781250	8267.865234
1524.146484	8289.016602
1522.509766	8218.468750
1520.873047	8299.206055
1519.236328	8198.133789
1517.599609	8158.192383
1515.962891	8304.542969
1514.324219	8374.503906
1512.687500	8358.966797
1511.048828	8460.927734
1509.410156	8512.500977
1507.771484	8541.173828
1506.130859	8461.566406
1504.492188	8575.611328
1502.851563	8447.253906
1501.210938	8584.109375
1499.570313	8390.291016
1497.927734	8307.751953
1496.287109	8325.759766
1494.644531	8281.333008
1493.001953	8084.699707
1491.359375	8061.649902
1489.716797	7874.276367
1488.074219	7857.365723
1486.429688	7887.610840
1484.785156	7815.960938
1483.140625	7654.644043
1481.496094	7704.670898
1479.851563	7722.762695
1478.207031	7786.425781
1476.560547	7818.161621
1474.914063	7871.144531
1473.267578	7984.836426
1471.621094	8104.550293
1469.972656	7914.608887
1468.326172	8002.420898
1466.677734	8138.738281
1465.029297	8373.580078
1463.380859	8635.614258
1461.732422	8844.473633
1460.082031	8891.062500
1458.431641	9028.551758
1456.783203	9100.834961
1455.132813	9315.468750
1453.480469	9198.358398
1451.830078	9017.708008
1450.177734	8853.786133
1448.527344	8662.693359
1446.875000	8461.090820
1445.220703	8062.918457
1443.568359	7962.863281
1441.916016	7806.904297
1440.261719	7640.429199
1438.607422	7594.940918
1436.953125	7522.270996
1435.298828	7475.315430
1433.642578	7307.543945
1431.988281	7053.767578
1430.332031	7031.099121
1428.675781	7179.009277
1427.019531	7046.154785
1425.361328	6828.864746
1423.705078	6659.939453
1422.046875	6738.423828
1420.388672	6776.162598
1418.730469	6643.537109
1417.072266	6616.470215
1415.412109	6550.236816
1413.753906	6630.163574
1412.093750	6810.969238
1410.433594	6856.168457
1408.773438	7044.372559
1407.111328	7238.514648
1405.451172	7379.901367
1403.789063	7664.157227
1402.126953	8008.457520
1400.464844	8078.898926
1398.802734	8447.014648
1397.138672	8394.062500
1395.474609	8371.191406
1393.812500	8333.303711
1392.146484	8106.147949
1390.482422	7936.164063
1388.818359	7833.824707
1387.152344	7722.521973
1385.486328	7804.888672
1383.820313	7762.667480
1382.154297	7990.515625
1380.488281	8305.260742
1378.820313	8621.367188
1377.154297	8713.938477
1375.486328	8731.519531
1373.818359	8985.878906
1372.148438	8946.455078
1370.480469	8898.060547
1368.810547	8887.127930
1367.140625	8858.230469
1365.470703	8796.411133
1363.800781	8656.790039
1362.130859	8683.325195
1360.458984	8563.237305
1358.787109	8679.520508
1357.115234	8598.364258
1355.443359	8698.141602
1353.771484	8762.001953
1352.097656	9091.833984
1350.423828	9224.304688
1348.751953	9804.834961
1347.076172	10261.158203
1345.402344	10627.694336
1343.728516	11377.705078
1342.052734	11878.151367
1340.376953	12623.079102
1338.701172	13024.573242
1337.025391	13437.822266
1335.347656	13901.584961
1333.671875	14031.208008
1331.994141	13947.638672
1330.316406	13983.313477
1328.638672	13825.298828
1326.960938	13446.911133
1325.281250	13152.080078
1323.601563	12936.285156
1321.921875	12812.869141
1320.242188	12497.535156
1318.562500	12365.340820
1316.880859	12197.503906
1315.201172	11842.355469
1313.519531	11481.416016
1311.837891	11007.658203
1310.154297	10568.291016
1308.472656	10195.980469
1306.789063	9794.122070
1305.105469	9474.126953
1303.421875	9103.786133
1301.738281	8714.308594
1300.054688	8507.561523
1298.369141	8447.810547
1296.683594	8073.568359
1294.998047	8030.253906
1293.312500	7826.802734
1291.626953	7740.565430
1289.939453	7504.657227
1288.253906	7491.141602
1286.566406	7464.297363
1284.878906	7318.961914
1283.189453	7284.761230
1281.501953	7226.885254
1279.812500	7333.345703
1278.123047	7290.282715
1276.433594	7404.078613
1274.744141	7420.189453
1273.052734	7582.710938
1271.363281	7684.535645
1269.671875	7585.262207
1267.980469	7723.988770
1266.289063	7564.165039
1264.595703	7444.299805
1262.904297	7382.089844
1261.210938	7246.073242
1259.517578	7104.210449
1257.824219	6903.369141
1256.128906	6860.515625
1254.435547	6653.915039
1252.740234	6633.260254
1251.044922	6572.796875
1249.349609	6432.743164
1247.652344	6491.748535
1245.957031	6410.723145
1244.259766	6499.173828
1242.562500	6506.565918
1240.865234	6409.388672
1239.167969	6366.733398
1237.468750	6335.873535
1235.769531	6168.152832
1234.072266	6175.606934
1232.371094	6047.715332
1230.671875	6118.435059
1228.972656	6106.777344
1227.271484	6064.251953
1225.570313	5882.114258
1223.869141	5902.843750
1222.167969	5916.217285
1220.464844	5895.801758
1218.763672	5813.718750
1217.060547	5834.442383
1215.357422	5880.109375
1213.654297	5877.327637
1211.949219	5912.693359
1210.246094	5933.373535
1208.541016	5851.388672
1206.835938	5898.463867
1205.130859	5845.838867
1203.423828	5847.461914
1201.718750	5791.940430
1200.011719	5840.449219
1198.304688	5809.850098
1196.597656	5867.117676
1194.888672	5835.061035
1193.181641	5620.073730
1191.472656	5776.842773
1189.763672	5668.755371
1188.054688	5687.960449
1186.343750	5677.910645
1184.634766	5511.439941
1182.923828	5612.514160
1181.212891	5636.095703
1179.501953	5588.080566
1177.791016	5572.219238
1176.078125	5569.507324
1174.365234	5628.113770
1172.652344	5565.544434
1170.939453	5580.345703
1169.226563	5533.862793
1167.511719	5646.392090
1165.798828	5617.414063
1164.083984	5553.456543
1162.369141	5543.460938
1160.652344	5497.035645
1158.937500	5516.195801
1157.220703	5399.876465
1155.503906	5598.178711
1153.787109	5401.811523
1152.070313	5452.998535
1150.351563	5445.947754
1148.632813	5486.915527
1146.916016	5552.594238
1145.195313	5532.434570
1143.476563	5744.930664
1141.757813	5739.272949
1140.037109	5695.829102
1138.316406	5749.758789
1136.595703	5543.625000
1134.875000	5485.729004
1133.152344	5391.556152
1131.429688	5497.767090
1129.708984	5345.576172
1127.984375	5334.209961
1126.261719	5363.469238
1124.539063	5230.266602
1122.814453	5187.029785
1121.089844	5126.414551
1119.365234	5238.311035
1117.640625	5164.668945
1115.914063	5137.420410
1114.187500	5156.535156
1112.462891	5051.100586
1110.734375	5039.821289
1109.007813	5093.682617
1107.281250	5080.950195
1105.552734	4968.392578
1103.824219	4906.512207
1102.095703	4989.276367
1100.367188	4876.814453
1098.636719	4836.678223
1096.908203	4763.320801
1095.177734	4820.033203
1093.447266	4784.269531
1091.714844	4752.854004
1089.984375	4901.936035
1088.251953	4760.797852
1086.519531	4831.875977
1084.787109	4887.049316
1083.054688	4955.180176
1081.320313	4997.319336
1079.585938	4980.320801
1077.851563	5156.500000
1076.117188	5117.853516
1074.382813	5128.215332
1072.648438	5109.759766
1070.912109	5196.451172
1069.175781	5110.310547
1067.439453	5143.695801
1065.701172	5141.083496
1063.964844	4984.504883
1062.226563	4912.875488
1060.488281	4813.950684
1058.750000	4781.216797
1057.011719	4744.184570
1055.271484	4695.669922
1053.531250	4707.530273
1051.791016	4673.411621
1050.050781	4722.615234
1048.310547	4737.331543
1046.568359	4777.882813
1044.826172	4801.190430
1043.083984	4728.342285
1041.341797	4735.868652
1039.599609	4736.219238
1037.855469	4647.659668
1036.113281	4808.603027
1034.369141	4791.734863
1032.623047	4862.289063
1030.878906	4876.935059
1029.132813	5003.299316
1027.386719	4959.190918
1025.640625	5064.001465
1023.894531	5017.035645
1022.148438	5071.696777
1020.400391	5107.732422
1018.652344	5050.774414
1016.904297	5026.733887
1015.156250	5111.365234
1013.406250	5155.933105
1011.658203	5107.588867
1009.908203	5043.549805
1008.158203	5069.531250
1006.408203	4995.532715
1004.656250	5040.073242
1002.904297	4893.314453
1001.152344	4903.605957
999.400391	4946.708984
997.648438	4922.747070
995.896484	4784.704590
994.142578	4760.790527
992.388672	4734.035645
990.634766	4695.891602
988.878906	4753.228027
987.125000	4782.047363
985.369141	4738.220215
983.613281	4776.996094
981.857422	4878.387695
980.099609	4800.411133
978.343750	4800.726563
976.585938	4792.506836
974.828125	4743.045898
973.070313	4724.889160
971.310547	4622.868652
969.552734	4705.653320
967.792969	4602.262207
966.033203	4669.386230
964.273438	4710.914551
962.511719	4769.461914
960.750000	4974.198242
958.990234	4994.337402
957.226563	5010.209473
955.464844	4838.819824
953.703125	4871.738770
951.939453	4747.250977
950.175781	4636.996582
948.412109	4569.311035
946.648438	4510.158203
944.882813	4560.112305
943.117188	4475.494629
941.351563	4461.714355
939.585938	4446.523926
937.820313	4462.477051
936.052734	4416.163086
934.285156	4562.263672
932.517578	4453.716797
930.750000	4602.567383
928.982422	4629.772949
927.212891	4628.698730
925.443359	4590.886230
923.673828	4664.692871
921.904297	4713.042480
920.132813	4669.586914
918.361328	4607.798828
916.591797	4454.299805
914.818359	4398.233887
913.046875	4400.033203
911.275391	4339.773438
909.501953	4275.311523
907.728516	4343.394531
905.955078	4253.591309
904.179688	4180.738770
902.406250	4193.853516
900.630859	4199.919434
898.855469	4152.474121
897.080078	4216.264648
895.302734	4227.949707
893.525391	4170.680176
891.750000	4221.759766
889.970703	4164.517578
888.193359	4187.451172
886.416016	4215.996582
884.636719	4136.307129
882.857422	4159.229980
881.078125	4132.973145
879.296875	4103.918945
877.517578	4045.390625
875.736328	4058.484863
873.955078	4078.589844
872.173828	4031.332764
870.390625	3978.485840
868.609375	3948.103516
866.826172	3989.246826
865.042969	3897.193359
863.259766	3984.579590
861.474609	3971.037109
859.689453	3943.491943
857.904297	3945.370850
856.119141	3906.641846
854.333984	3940.725586
852.546875	3900.615234
850.761719	3845.131836
848.974609	3872.210205
847.185547	3854.520508
845.398438	3941.708740
843.609375	3904.439209
841.822266	3830.848877
840.031250	3852.307861
838.242188	3942.207275
836.453125	3877.038574
834.662109	3899.866699
832.871094	3884.992676
831.080078	3853.377441
829.289063	3858.054932
827.496094	3887.839600
825.703125	3909.242188
823.910156	3927.845459
822.117188	3815.402832
820.324219	3917.639648
818.529297	3918.113037
816.734375	4021.670166
814.939453	3955.268555
813.144531	4015.603760
811.347656	3947.842041
809.550781	4031.809326
807.755859	4014.164795
805.957031	3924.193115
804.160156	3928.833496
802.361328	3934.861572
800.564453	4024.291504
798.765625	4077.545410
796.964844	3918.190918
795.166016	3921.436279
793.365234	4008.006104
791.564453	3970.962891
789.763672	4022.776611
787.962891	4202.242676
786.160156	4201.252930
784.359375	4139.229004
782.556641	4021.761475
780.751953	4052.703125
778.949219	3982.439941
777.144531	3906.666260
775.339844	4017.971191
773.535156	3951.920410
771.730469	4011.921875
769.925781	3972.208984
768.119141	4011.413574
766.312500	4004.931641
764.505859	4008.137207
762.697266	4070.819580
760.890625	4208.147949
759.082031	4222.362793
757.273438	4284.948730
755.464844	4575.520996
753.654297	4686.349121
751.845703	5113.433105
750.035156	5617.647461
748.224609	6319.050293
746.412109	7058.769043
744.601563	7832.636230
742.789063	8781.350586
740.976563	9899.268555
739.164063	12053.650391
737.349609	14750.200195
735.537109	17916.861328
733.722656	20171.164063
731.908203	20495.654297
730.091797	18529.460938
728.277344	15344.154297
726.460938	11967.617188
724.644531	9075.783203
722.828125	7061.857910
721.009766	6097.182617
719.193359	5248.496582
717.375000	4793.481445
715.556641	4433.538574
713.736328	4194.713867
711.917969	4127.763672
710.097656	3977.044922
708.277344	3955.500488
706.457031	3854.325684
704.636719	3965.979980
702.814453	3814.068848
700.992188	3870.793701
699.169922	3766.989746
697.347656	3857.985596
695.523438	3943.453125
693.699219	4041.217285
691.875000	4129.340820
690.050781	4368.142578
688.226563	4453.406738
686.400391	4545.477539
684.574219	4463.614746
682.748047	4294.182129
680.921875	4130.304199
679.095703	4070.488770
677.267578	3981.975586
675.439453	3871.622803
673.611328	3795.503662
671.781250	3847.911865
669.953125	3941.292969
668.123047	3889.803711
666.292969	3905.270264
664.460938	3916.632324
662.630859	3872.010986
660.798828	3897.024658
658.966797	3947.954590
657.134766	4084.812988
655.302734	4112.485352
653.468750	4185.145508
651.634766	4156.882324
649.800781	4230.859863
647.966797	4314.340820
646.130859	4287.428223
644.294922	4297.303711
642.458984	4304.451172
640.623047	4278.920410
638.787109	4235.707520
636.949219	4159.856445
635.111328	4175.190918
633.273438	4185.077148
631.435547	4173.201660
629.595703	4168.128418
627.757813	4096.459473
625.917969	4122.659668
624.076172	4117.601563
622.236328	4029.696777
620.394531	4009.726074
618.552734	3864.872314
616.710938	3735.016602
614.869141	3788.400879
613.025391	3673.546875
611.183594	3664.533203
609.339844	3505.018066
607.494141	3482.492432
605.650391	3527.740234
603.804688	3564.836670
601.958984	3451.552979
600.113281	3490.003662
598.267578	3501.356201
596.419922	3474.801270
594.572266	3568.704102
592.724609	3493.437256
590.876953	3572.410889
589.027344	3587.785889
587.179688	3470.654785
585.330078	3459.012207
583.480469	3475.753906
581.628906	3450.604492
579.779297	3515.966309
577.927734	3519.177490
576.076172	3585.841309
574.222656	3564.737793
572.371094	3652.949463
570.517578	3645.330811
568.664063	3848.128418
566.810547	3814.845215
564.955078	3772.140381
563.101563	3972.065918
561.246094	3839.060059
559.390625	3801.768066
557.533203	3786.043457
555.677734	3674.721436
553.820313	3729.037842
551.962891	3633.932861
550.105469	3557.711426
548.246094	3468.073486
546.386719	3460.519043
544.527344	3415.319092
542.667969	3485.749512
540.808594	3377.397949
538.947266	3412.868164
537.085938	3472.501465
535.224609	3510.617676
533.363281	3429.216309
531.500000	3401.548584
529.638672	3290.687012
527.775391	3328.809326
525.910156	3366.913086
524.046875	3464.005859
522.181641	3884.174561
520.316406	4277.333008
518.451172	4049.829346
516.585938	3508.922607
514.718750	3288.408691
512.851563	3259.499023
510.984375	3183.743896
509.117188	3125.425537
507.250000	3187.572021
505.380859	3158.713379
503.511719	3176.682617
501.642578	3154.526123
499.771484	3123.021729
497.902344	3103.561279
496.031250	3137.561035
494.160156	3104.746582
492.287109	3152.085693
490.416016	3155.336426
488.542969	3149.240479
486.669922	3173.844727
484.796875	3171.750000
482.921875	3130.969238
481.046875	3147.557373
479.171875	3125.468994
477.296875	3123.386963
475.421875	3113.309326
473.544922	3023.290283
471.667969	3103.824951
469.791016	3067.122559
467.914063	3055.735840
466.035156	3090.944824
464.156250	3134.121826
462.277344	3056.200684
460.398438	3048.817139
458.519531	3004.200439
456.638672	3030.071777
454.757813	2974.846680
452.876953	3033.935303
450.994141	3019.922119
449.113281	2988.647705
447.230469	3054.329834
445.347656	2993.853516
443.462891	2970.571289
441.580078	3080.001465
439.695313	3023.541992
437.810547	3063.935059
435.925781	3051.266357
434.039063	3050.534912
432.152344	3077.637695
430.267578	3070.274658
428.378906	3064.239502
426.492188	3078.074219
424.603516	3028.342773
422.714844	2991.873291
420.826172	3090.420410
418.937500	3065.862061
417.046875	3026.763428
415.158203	3045.876709
413.265625	3026.635010
411.375000	3012.690430
409.484375	3033.114258
407.591797	3040.315186
405.699219	3039.586670
403.806641	2960.938721
401.912109	2958.908691
400.019531	3050.602295
