#Wave		#Intensity
1585.210938	18842.240234
1584.209961	18999.591797
1583.208984	18760.925781
1582.208008	18991.720703
1581.206055	18885.445313
1580.204102	18729.302734
1579.202148	18563.244141
1578.200195	18711.566406
1577.198242	18927.164063
1576.195313	18394.619141
1575.192383	18488.035156
1574.189453	18556.488281
1573.186523	18659.798828
1572.182617	18451.634766
1571.178711	18395.503906
1570.174805	18655.677734
1569.170898	18380.416016
1568.166992	18471.205078
1567.162109	18467.380859
1566.158203	18286.882813
1565.153320	18454.757813
1564.147461	18421.087891
1563.142578	18320.287109
1562.136719	18236.931641
1561.130859	18412.132813
1560.125000	18559.919922
1559.119141	18496.443359
1558.113281	18664.025391
1557.106445	18689.964844
1556.099609	18748.175781
1555.092773	19076.972656
1554.084961	19413.082031
1553.078125	19577.814453
1552.070313	19442.259766
1551.062500	19862.423828
1550.054688	19977.355469
1549.045898	20293.089844
1548.038086	20494.652344
1547.029297	20658.953125
1546.020508	20952.042969
1545.011719	21472.945313
1544.001953	21547.765625
1542.992188	21855.347656
1541.982422	22142.992188
1540.972656	22551.816406
1539.962891	22495.171875
1538.952148	22710.742188
1537.942383	22656.562500
1536.931641	22644.451172
1535.919922	22612.560547
1534.909180	22565.847656
1533.897461	22126.117188
1532.886719	21871.923828
1531.874023	21716.671875
1530.862305	21435.492188
1529.850586	20927.201172
1528.837891	20619.136719
1527.825195	20683.996094
1526.812500	20134.210938
1525.799805	20102.896484
1524.786133	19812.525391
1523.772461	19623.412109
1522.758789	19318.460938
1521.745117	19139.390625
1520.731445	18938.207031
1519.716797	18897.312500
1518.702148	18782.507813
1517.687500	18455.869141
1516.672852	18599.841797
1515.657227	18820.095703
1514.642578	18926.998047
1513.626953	18797.531250
1512.610352	18633.662109
1511.594727	18991.523438
1510.579102	18721.890625
1509.562500	18811.480469
1508.545898	18539.537109
1507.529297	18796.312500
1506.511719	18851.414063
1505.494141	18847.509766
1504.477539	18850.976563
1503.458984	18714.416016
1502.441406	18685.976563
1501.423828	18917.841797
1500.405273	18761.708984
1499.386719	18809.367188
1498.368164	18442.269531
1497.348633	18519.416016
1496.330078	18915.425781
1495.310547	18693.230469
1494.291016	18598.630859
1493.271484	18626.646484
1492.250977	18799.259766
1491.231445	18765.958984
1490.210938	18629.769531
1489.190430	18792.474609
1488.168945	18622.048828
1487.148438	18718.576172
1486.126953	18915.429688
1485.105469	18674.105469
1484.083984	18910.035156
1483.061523	18952.597656
1482.040039	19119.884766
1481.017578	19247.972656
1479.995117	19256.207031
1478.971680	19345.103516
1477.949219	19495.058594
1476.925781	19505.675781
1475.902344	19745.919922
1474.878906	19592.839844
1473.855469	20006.337891
1472.831055	20070.548828
1471.806641	20593.613281
1470.782227	20723.560547
1469.757813	21160.876953
1468.733398	21337.000000
1467.708008	21749.615234
1466.682617	22140.113281
1465.657227	22420.746094
1464.631836	22903.560547
1463.605469	23276.515625
1462.579102	23795.492188
1461.552734	24107.210938
1460.526367	24725.644531
1459.500000	24873.906250
1458.472656	25253.361328
1457.445313	25970.955078
1456.417969	26009.363281
1455.390625	25862.863281
1454.362305	26003.429688
1453.334961	25754.853516
1452.306641	25394.541016
1451.277344	25238.562500
1450.249023	24871.212891
1449.219727	24469.998047
1448.191406	24098.101563
1447.162109	23342.615234
1446.131836	22847.263672
1445.102539	22466.218750
1444.072266	21745.519531
1443.041992	21493.476563
1442.011719	21200.291016
1440.981445	20890.246094
1439.950195	20468.769531
1438.918945	20066.863281
1437.887695	20368.142578
1436.856445	20092.455078
1435.825195	19606.062500
1434.792969	19589.873047
1433.760742	19765.042969
1432.728516	19487.283203
1431.696289	19422.701172
1430.663086	19353.304688
1429.629883	19020.136719
1428.596680	19248.468750
1427.563477	18838.046875
1426.530273	19015.527344
1425.496094	18752.828125
1424.461914	18922.998047
1423.427734	18781.283203
1422.393555	18286.794922
1421.358398	18253.996094
1420.323242	18402.382813
1419.288086	18613.501953
1418.252930	18532.359375
1417.217773	18579.197266
1416.181641	18283.279297
1415.145508	18523.199219
1414.109375	18372.171875
1413.073242	18426.238281
1412.036133	18637.035156
1411.000000	18457.142578
1409.962891	18494.277344
1408.924805	18666.365234
1407.887695	18770.908203
1406.849609	18998.273438
1405.812500	18830.529297
1404.773438	19156.515625
1403.735352	19660.529297
1402.697266	19796.042969
1401.658203	19945.939453
1400.619141	20314.726563
1399.580078	20173.373047
1398.540039	20282.207031
1397.500977	20602.597656
1396.460938	20384.337891
1395.420898	20543.529297
1394.380859	20532.035156
1393.339844	20400.416016
1392.298828	20352.921875
1391.257813	20303.044922
1390.216797	20421.263672
1389.175781	20244.160156
1388.133789	20292.736328
1387.091797	19902.167969
1386.049805	20284.265625
1385.007813	20539.078125
1383.964844	20211.048828
1382.922852	20633.597656
1381.879883	20744.349609
1380.835938	20970.087891
1379.792969	20965.708984
1378.749023	21085.898438
1377.706055	21191.667969
1376.661133	21251.892578
1375.617188	21161.265625
1374.573242	21056.312500
1373.528320	21477.878906
1372.483398	21693.505859
1371.438477	21638.738281
1370.392578	21835.105469
1369.347656	21684.685547
1368.301758	21429.138672
1367.255859	21862.041016
1366.208984	22003.232422
1365.163086	21733.441406
1364.116211	21984.472656
1363.069336	21932.111328
1362.022461	21898.871094
1360.974609	22221.316406
1359.927734	22097.335938
1358.879883	22071.236328
1357.832031	22379.125000
1356.783203	22298.117188
1355.735352	22167.064453
1354.686523	22577.251953
1353.637695	22567.755859
1352.588867	22906.191406
1351.539063	23120.589844
1350.490234	23651.714844
1349.440430	24165.943359
1348.390625	24275.171875
1347.339844	24891.416016
1346.290039	25288.431641
1345.239258	25544.884766
1344.188477	26134.300781
1343.137695	26673.517578
1342.085938	26679.812500
1341.034180	26807.361328
1339.982422	27410.273438
1338.930664	27620.792969
1337.878906	27900.126953
1336.826172	27927.531250
1335.773438	28323.060547
1334.720703	28262.498047
1333.667969	27895.701172
1332.614258	27752.173828
1331.561523	27202.906250
1330.507813	27277.859375
1329.453125	27217.572266
1328.399414	26673.498047
1327.344727	26238.722656
1326.290039	25723.525391
1325.235352	25718.119141
1324.180664	25553.949219
1323.125000	25157.671875
1322.070313	25346.609375
1321.014648	25125.781250
1319.958008	25113.394531
1318.902344	25025.261719
1317.845703	24967.931641
1316.789063	24390.074219
1315.732422	24134.185547
1314.675781	24133.835938
1313.618164	23651.099609
1312.560547	23215.847656
1311.502930	22891.869141
1310.445313	22674.365234
1309.386719	22232.500000
1308.329102	21660.902344
1307.270508	21552.425781
1306.210938	21066.210938
1305.152344	20769.050781
1304.092773	20651.384766
1303.033203	20307.242188
1301.973633	20161.410156
1300.914063	20027.433594
1299.853516	19822.765625
1298.792969	19919.964844
1297.732422	20028.908203
1296.671875	19746.595703
1295.611328	19655.250000
1294.549805	19472.070313
1293.488281	19755.294922
1292.426758	19729.931641
1291.364258	19704.580078
1290.302734	19389.730469
1289.240234	19505.650391
1288.177734	19386.248047
1287.114258	19365.687500
1286.051758	19716.705078
1284.988281	19428.041016
1283.924805	19583.785156
1282.861328	19222.412109
1281.796875	19530.863281
1280.732422	19406.923828
1279.667969	19532.000000
1278.603516	19560.744141
1277.539063	19258.445313
1276.473633	19526.650391
1275.408203	19313.658203
1274.342773	19412.806641
1273.277344	19490.798828
1272.210938	19775.138672
1271.145508	19775.642578
1270.079102	19778.488281
1269.011719	19352.423828
1267.945313	19856.812500
1266.877930	19730.783203
1265.810547	19684.441406
1264.743164	19649.828125
1263.674805	19341.296875
1262.607422	18939.263672
1261.539063	18886.103516
1260.470703	18580.265625
1259.401367	18522.523438
1258.333008	18427.380859
1257.263672	18519.341797
1256.194336	18253.580078
1255.125000	17952.867188
1254.054688	18068.236328
1252.985352	17580.783203
1251.915039	17455.587891
1250.843750	17692.419922
1249.773438	17450.509766
1248.702148	17148.009766
1247.630859	17193.376953
1246.559570	17290.058594
1245.488281	16803.486328
1244.416016	17049.476563
1243.343750	16814.998047
1242.271484	17051.552734
1241.199219	16642.357422
1240.125977	16659.791016
1239.053711	16800.701172
1237.980469	16785.478516
1236.906250	16928.626953
1235.833008	16962.279297
1234.758789	16737.519531
1233.684570	16629.224609
1232.610352	16648.953125
1231.536133	16410.441406
1230.460938	16681.402344
1229.385742	16780.167969
1228.310547	16746.369141
1227.235352	16675.392578
1226.159180	16885.640625
1225.083008	16589.289063
1224.006836	16769.263672
1222.930664	16805.169922
1221.853516	16957.156250
1220.777344	16863.003906
1219.700195	16701.582031
1218.622070	17018.240234
1217.544922	17144.527344
1216.466797	17226.689453
1215.388672	17283.304688
1214.310547	17344.531250
1213.232422	17442.820313
1212.153320	17457.634766
1211.074219	17857.062500
1209.995117	17616.962891
1208.916016	17835.535156
1207.835938	17861.826172
1206.755859	17853.376953
1205.675781	17824.101563
1204.595703	17524.095703
1203.514648	17358.400391
1202.434570	17326.931641
1201.353516	17332.474609
1200.271484	17527.601563
1199.190430	17577.015625
1198.108398	17288.994141
1197.026367	17241.392578
1195.944336	17043.654297
1194.862305	16970.718750
1193.779297	17036.355469
1192.696289	16783.378906
1191.613281	16574.363281
1190.530273	16630.808594
1189.446289	16779.511719
1188.362305	16598.306641
1187.278320	16486.361328
1186.194336	16356.016602
1185.109375	16230.337891
1184.024414	15871.943359
1182.939453	16257.935547
1181.854492	16187.641602
1180.768555	16103.557617
1179.683594	16058.652344
1178.597656	16115.060547
1177.510742	15996.516602
1176.424805	15578.872070
1175.337891	15860.807617
1174.250977	15882.702148
1173.164063	15716.011719
1172.077148	15891.969727
1170.989258	15672.476563
1169.901367	15761.035156
1168.813477	15647.355469
1167.724609	15818.578125
1166.636719	15980.538086
1165.547852	15820.957031
1164.458984	15750.976563
1163.369141	15899.071289
1162.280273	16014.974609
1161.190430	15928.933594
1160.100586	15957.616211
1159.010742	16224.783203
1157.919922	16225.873047
1156.829102	16084.840820
1155.738281	16319.718750
1154.647461	16302.453125
1153.555664	16090.477539
1152.464844	16215.264648
1151.373047	16225.505859
1150.280273	16114.409180
1149.188477	16122.375977
1148.095703	16031.941406
1147.002930	16186.340820
1145.910156	15700.220703
1144.817383	15694.544922
1143.723633	15720.877930
1142.629883	15482.041016
1141.536133	15533.544922
1140.441406	15473.067383
1139.347656	15551.960938
1138.252930	15345.334961
1137.158203	15360.285156
1136.062500	15382.075195
1134.967773	15476.891602
1133.872070	15338.913086
1132.776367	15429.131836
1131.679688	15083.657227
1130.583984	15442.979492
1129.487305	15617.470703
1128.390625	15509.236328
1127.292969	15558.293945
1126.196289	15347.585938
1125.098633	15323.759766
1124.000977	15179.238281
1122.903320	15428.692383
1121.804688	15304.695313
1120.706055	15210.338867
1119.607422	15536.986328
1118.508789	15235.593750
1117.409180	15225.465820
1116.310547	15149.395508
1115.210938	15162.023438
1114.110352	14951.888672
1113.010742	15030.454102
1111.910156	15002.199219
1110.809570	15064.816406
1109.708984	14972.974609
1108.607422	15158.177734
1107.506836	14980.090820
1106.405273	14956.410156
1105.303711	14989.464844
1104.201172	14806.989258
1103.098633	14842.328125
1101.996094	14877.649414
1100.893555	15053.514648
1099.791016	14764.648438
1098.687500	14949.523438
1097.583984	14851.115234
1096.480469	15056.274414
1095.376953	14953.352539
1094.272461	15108.586914
1093.167969	15057.760742
1092.063477	15135.954102
1090.958008	14985.584961
1089.853516	15226.633789
1088.748047	15293.426758
1087.642578	15262.959961
1086.536133	15641.688477
1085.430664	15658.620117
1084.324219	15908.291016
1083.217773	15920.635742
1082.110352	16303.403320
1081.003906	16347.268555
1079.896484	16242.102539
1078.789063	16559.085938
1077.680664	16749.550781
1076.573242	16698.511719
1075.464844	16439.962891
1074.356445	16652.878906
1073.247070	16259.164063
1072.138672	16384.105469
1071.029297	16301.641602
1069.919922	16203.439453
1068.809570	15870.988281
1067.700195	15869.769531
1066.589844	15620.850586
1065.479492	15466.594727
1064.368164	15728.808594
1063.257813	15432.822266
1062.146484	15415.945313
1061.035156	15201.130859
1059.922852	15143.830078
1058.811523	15014.604492
1057.699219	15033.794922
1056.586914	14801.267578
1055.473633	14815.999023
1054.361328	14880.144531
1053.248047	14757.849609
1052.134766	14691.742188
1051.021484	14713.214844
1049.907227	14954.629883
1048.792969	14648.417969
1047.678711	14842.626953
1046.564453	14552.272461
1045.449219	14797.991211
1044.333984	14698.337891
1043.218750	14728.732422
1042.103516	14642.581055
1040.987305	14462.366211
1039.871094	14483.829102
1038.754883	14599.339844
1037.638672	14569.263672
1036.521484	14767.528320
1035.404297	14518.097656
1034.287109	14629.019531
1033.169922	14619.090820
1032.051758	14781.379883
1030.933594	14670.796875
1029.815430	14649.683594
1028.697266	14735.862305
1027.578125	14587.371094
1026.458984	14800.866211
1025.339844	14554.143555
1024.220703	14608.999023
1023.100586	14623.641602
1021.980469	14792.292969
1020.860352	14621.660156
1019.740234	14647.442383
1018.619141	14534.911133
1017.498047	14451.419922
1016.376953	14711.333984
1015.255859	14576.567383
1014.133789	14606.781250
1013.011719	14543.396484
1011.889648	14549.097656
1010.767578	14403.344727
1009.644531	14498.140625
1008.521484	14468.223633
1007.398438	14422.739258
1006.274414	14526.364258
1005.151367	14356.298828
1004.027344	14522.169922
1002.902344	14361.072266
1001.778320	14615.797852
1000.653320	14510.317383
999.528320	14742.671875
998.403320	14388.366211
997.278320	14753.919922
996.152344	14746.213867
995.026367	14598.628906
993.900391	14761.884766
992.773438	14822.977539
991.646484	14828.570313
990.519531	14942.859375
989.392578	14813.130859
988.265625	15027.151367
987.137695	14928.496094
986.009766	15213.318359
984.881836	15170.059570
983.752930	14934.078125
982.624023	15152.257813
981.495117	14920.810547
980.366211	14864.366211
979.236328	14865.495117
978.106445	14789.168945
976.976563	14973.945313
975.846680	14652.097656
974.715820	14631.152344
973.585938	14696.443359
972.454102	14542.865234
971.323242	14239.073242
970.191406	14344.175781
969.060547	14243.791016
967.927734	14335.591797
966.795898	14263.955078
965.663086	14355.708008
964.530273	14387.829102
963.397461	14269.886719
962.264648	14447.610352
961.130859	14473.068359
959.997070	14507.333984
958.863281	14369.623047
957.729492	14507.487305
956.594727	14367.632813
955.459961	14483.401367
954.325195	14528.633789
953.189453	14283.160156
952.053711	14341.624023
950.917969	14226.167969
949.782227	14038.138672
948.646484	13964.603516
947.509766	13985.685547
946.373047	14132.112305
945.235352	14447.774414
944.098633	14506.101563
942.960938	14296.277344
941.823242	14233.760742
940.685547	14347.010742
939.546875	14306.471680
938.408203	14421.848633
937.269531	14519.610352
936.129883	14683.171875
934.991211	14570.175781
933.851563	14738.037109
932.711914	14664.556641
931.571289	14681.013672
930.431641	14896.965820
929.291016	14691.984375
928.149414	14754.439453
927.008789	14707.321289
925.867188	14969.066406
924.725586	14681.031250
923.583984	14629.579102
922.441406	14711.670898
921.299805	14526.738281
920.157227	14352.827148
919.013672	14181.179688
917.871094	14164.880859
916.727539	13794.381836
915.583984	14036.120117
914.439453	14035.159180
913.295898	14038.568359
912.151367	13950.225586
911.006836	14051.929688
909.861328	13773.654297
908.716797	13846.970703
907.571289	13883.150391
906.424805	13860.396484
905.279297	13881.283203
904.132813	13616.438477
902.986328	13842.342773
901.839844	13924.257813
900.692383	13622.525391
899.545898	13841.735352
898.398438	13762.374023
897.250000	13667.799805
896.102539	13810.629883
894.954102	13857.600586
893.805664	13771.772461
892.656250	13929.712891
891.507813	13748.173828
890.358398	13862.541992
889.208984	14009.478516
888.058594	13699.761719
886.908203	13679.289063
885.758789	13871.801758
884.607422	13679.650391
883.457031	13785.183594
882.305664	13873.293945
881.154297	13772.461914
880.002930	13747.651367
878.850586	13794.470703
877.698242	13652.494141
876.545898	13536.612305
875.393555	13414.275391
874.240234	13630.254883
873.086914	13438.577148
871.933594	13216.642578
870.780273	13491.022461
869.625977	13747.946289
868.471680	13593.231445
867.317383	13572.840820
866.162109	13565.447266
865.007813	13590.523438
863.852539	13431.650391
862.696289	13445.924805
861.541016	13349.880859
860.384766	13437.689453
859.228516	13644.368164
858.072266	13342.997070
856.915039	13458.837891
855.757813	13213.816406
854.600586	13487.314453
853.442383	13292.064453
852.285156	13286.900391
851.126953	13061.561523
849.968750	13341.317383
848.809570	13316.722656
847.650391	13404.308594
846.491211	13515.576172
845.332031	13368.055664
844.171875	13397.364258
843.012695	13267.176758
841.851563	13341.741211
840.691406	13340.874023
839.530273	13417.539063
838.369141	13345.596680
837.208008	13222.019531
836.046875	13343.853516
834.884766	13267.669922
833.722656	13232.393555
832.560547	13175.624023
831.397461	13398.416016
830.234375	13118.053711
829.071289	13476.162109
827.908203	13305.497070
826.744141	13390.559570
825.580078	13398.260742
824.416016	13433.872070
823.251953	13398.619141
822.086914	13457.823242
820.921875	13304.554688
819.756836	13226.443359
818.590820	13281.352539
817.425781	13494.923828
816.259766	13316.053711
815.092773	13289.450195
813.926758	13273.572266
812.759766	13390.534180
811.592773	13301.810547
810.424805	13322.342773
809.257813	13287.198242
808.089844	13363.375977
806.920898	13026.488281
805.752930	13340.180664
804.583984	13166.019531
803.415039	13175.854492
802.246094	13200.651367
801.076172	13225.435547
799.906250	13226.699219
798.736328	13148.905273
797.566406	13107.459961
796.395508	13253.971680
795.224609	13250.953125
794.053711	13260.742188
792.881836	13560.779297
791.710938	13532.083984
790.538086	13588.730469
789.366211	13685.873047
788.194336	13895.979492
787.021484	13903.469727
785.848633	13902.430664
784.674805	13816.158203
783.500977	14064.384766
782.327148	13975.983398
781.153320	13938.724609
779.979492	13735.430664
778.804688	13742.938477
777.629883	13737.673828
776.454102	13738.791992
775.279297	13869.651367
774.103516	13413.553711
772.927734	13642.218750
771.750977	13588.091797
770.575195	13610.487305
769.398438	13845.321289
768.220703	13867.645508
767.043945	13996.134766
765.866211	13967.459961
764.688477	14142.561523
763.510742	14273.018555
762.332031	14660.125977
761.153320	14697.074219
759.974609	15156.005859
758.794922	15549.002930
757.616211	16111.390625
756.436523	16982.916016
755.255859	17830.734375
754.076172	19319.976563
752.895508	20702.648438
751.714844	22639.396484
750.533203	24399.568359
749.352539	26544.089844
748.170898	28211.578125
746.988281	29575.818359
745.806641	30347.287109
744.624023	30374.164063
743.441406	29927.531250
742.258789	29316.257813
741.075195	28411.576172
739.891602	27414.361328
738.708008	26719.603516
737.523438	26263.748047
736.339844	25877.761719
735.155273	25540.490234
733.969727	25036.683594
732.785156	24018.396484
731.599609	23224.126953
730.414063	21768.152344
729.227539	20688.070313
728.041992	19127.962891
726.855469	18116.404297
725.667969	17187.464844
724.481445	16151.540039
723.293945	15484.568359
722.106445	15171.561523
720.918945	14820.813477
719.730469	14430.247070
718.541992	14420.621094
717.353516	13965.125000
716.164063	14199.521484
714.975586	13780.021484
713.786133	13493.121094
712.595703	13595.083008
711.406250	13539.439453
710.215820	13456.516602
709.025391	13346.333008
707.833984	13483.918945
706.642578	13388.469727
705.451172	13442.046875
704.259766	13407.487305
703.068359	13561.708008
701.875977	13554.394531
700.683594	13788.171875
699.490234	13965.250977
698.297852	14244.924805
697.104492	14627.122070
695.910156	14881.377930
694.716797	15288.379883
693.522461	15676.350586
692.328125	15812.975586
691.132813	15849.093750
689.938477	15640.419922
688.743164	15473.672852
687.547852	15233.812500
686.351563	15140.406250
685.155273	14733.518555
683.958984	14627.730469
682.762695	14292.178711
681.565430	14311.861328
680.368164	14060.063477
679.170898	14012.980469
677.973633	14126.637695
676.775391	14037.823242
675.577148	14024.155273
674.378906	14091.839844
673.179688	13823.751953
671.980469	13691.302734
670.781250	13796.533203
669.581055	13601.631836
668.381836	13452.655273
667.181641	13559.948242
665.980469	13496.428711
664.780273	13372.559570
663.579102	13209.198242
662.377930	13387.199219
661.175781	13228.069336
659.973633	13108.532227
658.771484	13355.056641
657.569336	13397.713867
656.367188	13353.047852
655.164063	13424.778320
653.960938	13704.240234
652.756836	13717.693359
651.552734	13872.354492
650.348633	13894.064453
649.144531	14245.807617
647.939453	14236.291016
646.735352	14513.097656
645.529297	14437.143555
644.324219	14450.398438
643.118164	14399.373047
641.912109	14250.944336
640.706055	14127.453125
639.499023	14097.252930
638.292969	13795.708984
637.084961	13767.667969
635.877930	13677.525391
634.669922	13570.864258
633.461914	13422.860352
632.253906	13005.949219
631.044922	13247.031250
629.836914	13142.631836
628.626953	13030.009766
627.417969	13206.834961
626.208008	13015.715820
624.998047	12849.477539
623.788086	12823.783203
622.577148	12779.511719
621.366211	12830.237305
620.155273	12885.068359
618.944336	12822.236328
617.732422	12938.940430
616.520508	12706.972656
615.308594	12563.791992
614.095703	12651.606445
612.882813	12729.071289
611.669922	12631.323242
610.457031	12797.354492
609.243164	12619.294922
608.029297	12680.216797
606.815430	12679.339844
605.600586	12723.749023
604.385742	12568.506836
603.170898	12670.532227
601.955078	12772.509766
600.740234	12847.703125
599.524414	12850.894531
598.307617	12775.969727
597.091797	12762.733398
595.875000	12792.652344
594.658203	12795.851563
593.440430	12926.380859
592.222656	12861.787109
591.004883	12856.753906
589.787109	12597.232422
588.568359	12616.882813
587.349609	12505.235352
586.130859	12656.155273
584.912109	12364.110352
583.692383	12582.639648
582.472656	12462.902344
581.251953	12486.650391
580.032227	12461.221680
578.811523	12669.282227
577.589844	12600.822266
576.369141	12907.013672
575.147461	13082.078125
573.925781	13169.075195
572.703125	13163.975586
571.481445	13338.856445
570.258789	13577.041016
569.035156	13608.644531
567.812500	13801.691406
566.588867	13900.656250
565.365234	14189.557617
564.140625	14174.011719
562.916992	14399.416016
561.692383	14534.891602
560.466797	14049.857422
559.242188	14146.580078
558.016602	14049.458008
556.791016	14174.688477
555.564453	13539.293945
554.337891	13621.772461
553.111328	13404.611328
551.884766	13095.855469
550.657227	12964.475586
549.429688	12967.577148
548.202148	12881.083008
546.974609	12796.664063
545.746094	12541.321289
544.517578	12727.646484
543.288086	12533.465820
542.058594	12526.489258
540.829102	12857.055664
539.599609	12697.538086
538.370117	12641.747070
537.139648	12439.679688
535.909180	12678.540039
534.677734	12334.385742
533.446289	12485.843750
532.214844	12487.005859
530.983398	12307.531250
529.750977	12572.519531
528.519531	12675.090820
527.286133	12416.595703
526.053711	12478.600586
524.820313	12469.622070
523.586914	12454.565430
522.353516	12565.147461
521.119141	12849.899414
519.884766	12622.099609
518.650391	12530.073242
517.415039	12508.944336
516.179688	12455.440430
514.944336	12505.159180
513.708984	12451.680664
