#Wave		#Intensity
1585.210938	6691.193359
1584.209961	6733.653320
1583.208984	6814.663574
1582.208008	6673.441406
1581.206055	6634.617188
1580.204102	6680.658691
1579.202148	6639.354004
1578.200195	6637.978516
1577.198242	6656.555664
1576.195313	6455.695801
1575.192383	6591.473633
1574.189453	6582.630859
1573.186523	6411.813965
1572.182617	6634.715820
1571.178711	6548.650391
1570.174805	6552.274902
1569.170898	6334.296875
1568.166992	6664.072754
1567.162109	6565.626465
1566.158203	6581.685547
1565.153320	6490.760254
1564.147461	6569.010742
1563.142578	6530.348145
1562.136719	6474.297363
1561.130859	6525.158203
1560.125000	6558.600586
1559.119141	6524.940918
1558.113281	6608.053711
1557.106445	6534.657715
1556.099609	6568.069336
1555.092773	6628.776367
1554.084961	6689.458496
1553.078125	6581.361816
1552.070313	6520.451660
1551.062500	6769.645508
1550.054688	6800.485352
1549.045898	6962.731445
1548.038086	6929.061523
1547.029297	6895.405762
1546.020508	6871.675293
1545.011719	6981.742676
1544.001953	7042.223145
1542.992188	7149.732422
1541.982422	7229.960449
1540.972656	7042.800781
1539.962891	7140.342285
1538.952148	7158.659668
1537.942383	7303.141602
1536.931641	7356.045410
1535.919922	7384.197754
1534.909180	7100.812012
1533.897461	7297.095215
1532.886719	7134.943359
1531.874023	7185.354492
1530.862305	7151.751953
1529.850586	6848.947266
1528.837891	7082.118164
1527.825195	7023.868164
1526.812500	6926.148926
1525.799805	6737.160156
1524.786133	6757.970703
1523.772461	6692.434570
1522.758789	6693.515137
1521.745117	6628.019043
1520.731445	6749.910156
1519.716797	6652.386719
1518.702148	6436.619141
1517.687500	6484.561035
1516.672852	6640.864746
1515.657227	6506.502930
1514.642578	6633.190430
1513.626953	6607.199707
1512.610352	6593.525391
1511.594727	6550.328125
1510.579102	6369.378906
1509.562500	6552.534668
1508.545898	6730.695313
1507.529297	6562.113770
1506.511719	6464.887207
1505.494141	6574.141113
1504.477539	6548.208008
1503.458984	6689.334961
1502.441406	6651.107422
1501.423828	6502.394531
1500.405273	6456.855957
1499.386719	6536.519043
1498.368164	6466.451172
1497.348633	6467.564941
1496.330078	6412.257813
1495.310547	6555.628906
1494.291016	6490.517578
1493.271484	6388.660645
1492.250977	6487.828125
1491.231445	6481.582520
1490.210938	6467.989258
1489.190430	6488.694336
1488.168945	6553.472168
1487.148438	6483.556641
1486.126953	6455.285156
1485.105469	6360.943359
1484.083984	6437.927246
1483.061523	6465.950195
1482.040039	6530.649902
1481.017578	6526.850586
1479.995117	6725.980957
1478.971680	6646.365234
1477.949219	6679.201660
1476.925781	6741.345215
1475.902344	6793.690918
1474.878906	6670.162598
1473.855469	7020.410645
1472.831055	6828.527344
1471.806641	6941.832031
1470.782227	6867.181152
1469.757813	6870.636230
1468.733398	7003.375488
1467.708008	7014.116699
1466.682617	7051.674805
1465.657227	7050.211914
1464.631836	7019.501465
1463.605469	7317.773926
1462.579102	7250.474609
1461.552734	7280.635742
1460.526367	7405.760742
1459.500000	7484.571777
1458.472656	7619.338867
1457.445313	7517.972168
1456.417969	7745.140137
1455.390625	7738.666504
1454.362305	7848.944824
1453.334961	7796.248047
1452.306641	7806.785645
1451.277344	7705.503418
1450.249023	7696.612305
1449.219727	7551.658691
1448.191406	7520.939453
1447.162109	7519.377441
1446.131836	7226.427246
1445.102539	7188.510254
1444.072266	7126.336426
1443.041992	7175.816895
1442.011719	7006.916992
1440.981445	6862.343750
1439.950195	6938.524414
1438.918945	6832.820313
1437.887695	6853.218262
1436.856445	6793.625000
1435.825195	6806.751953
1434.792969	6626.058105
1433.760742	6866.898926
1432.728516	6681.423340
1431.696289	6801.093262
1430.663086	6727.058594
1429.629883	6624.012695
1428.596680	6704.903809
1427.563477	6584.970215
1426.530273	6561.832520
1425.496094	6560.467285
1424.461914	6636.467285
1423.427734	6490.057617
1422.393555	6636.122559
1421.358398	6482.524414
1420.323242	6403.875000
1419.288086	6520.883789
1418.252930	6442.258301
1417.217773	6387.806152
1416.181641	6688.180664
1415.145508	6373.081055
1414.109375	6296.962891
1413.073242	6471.736816
1412.036133	6518.621582
1411.000000	6387.063477
1409.962891	6441.177246
1408.924805	6360.301758
1407.887695	6527.649414
1406.849609	6441.970703
1405.812500	6565.875977
1404.773438	6617.486328
1403.735352	6567.955078
1402.697266	6718.233887
1401.658203	6726.459961
1400.619141	6727.463867
1399.580078	6596.158691
1398.540039	6638.075195
1397.500977	6879.555664
1396.460938	6767.532715
1395.420898	6782.946289
1394.380859	6793.546875
1393.339844	6931.480469
1392.298828	6850.765137
1391.257813	6637.995605
1390.216797	6780.676270
1389.175781	6764.857422
1388.133789	6701.043457
1387.091797	6726.040039
1386.049805	6664.659180
1385.007813	6699.246582
1383.964844	6920.869629
1382.922852	6811.533203
1381.879883	6908.391113
1380.835938	6873.395996
1379.792969	6780.909180
1378.749023	6836.986328
1377.706055	6711.014160
1376.661133	6970.621094
1375.617188	6839.883789
1374.573242	6912.655273
1373.528320	6860.956055
1372.483398	6818.848145
1371.438477	7025.533203
1370.392578	6861.437012
1369.347656	6883.913086
1368.301758	6894.426270
1367.255859	7033.999023
1366.208984	6831.803223
1365.163086	6999.998535
1364.116211	6898.213379
1363.069336	7004.233398
1362.022461	7000.380371
1360.974609	7166.010742
1359.927734	7033.249023
1358.879883	6995.985352
1357.832031	7042.231934
1356.783203	7171.937012
1355.735352	7208.588379
1354.686523	7075.954102
1353.637695	7162.664551
1352.588867	7111.119141
1351.539063	7197.784668
1350.490234	7336.819824
1349.440430	7335.282227
1348.390625	7298.028320
1347.339844	7472.662109
1346.290039	7459.194824
1345.239258	7440.974121
1344.188477	7589.296387
1343.137695	7571.054688
1342.085938	7557.576172
1341.034180	7696.268555
1339.982422	7718.424805
1338.930664	7814.246094
1337.878906	7795.973633
1336.826172	7867.980957
1335.773438	7861.579102
1334.720703	7757.820801
1333.667969	7753.817871
1332.614258	7854.254883
1331.561523	7764.800293
1330.507813	7794.013184
1329.453125	7787.631836
1328.399414	7560.692871
1327.344727	7618.381836
1326.290039	7507.732910
1325.235352	7475.343262
1324.180664	7492.729004
1323.125000	7649.884766
1322.070313	7385.359375
1321.014648	7445.377441
1319.958008	7344.371582
1318.902344	7428.042969
1317.845703	7381.514648
1316.789063	7372.863281
1315.732422	7368.945801
1314.675781	7324.822754
1313.618164	7179.038086
1312.560547	7208.260742
1311.502930	7135.833984
1310.445313	7063.437012
1309.386719	6839.860840
1308.329102	6930.543945
1307.270508	7014.103027
1306.210938	6781.232422
1305.152344	6718.426270
1304.092773	6594.282227
1303.033203	6699.077148
1301.973633	6718.897461
1300.914063	6677.383789
1299.853516	6784.451172
1298.792969	6493.026855
1297.732422	6562.372559
1296.671875	6575.128418
1295.611328	6623.220703
1294.549805	6501.683594
1293.488281	6516.797852
1292.426758	6428.298828
1291.364258	6537.588379
1290.302734	6538.562012
1289.240234	6384.223633
1288.177734	6434.634766
1287.114258	6430.923340
1286.051758	6431.916504
1284.988281	6442.313477
1283.924805	6412.743164
1282.861328	6383.185547
1281.796875	6445.278809
1280.732422	6420.423828
1279.667969	6374.440430
1278.603516	6330.824219
1277.539063	6266.096680
1276.473633	6461.938477
1275.408203	6387.822754
1274.342773	6393.509766
1273.277344	6335.858887
1272.210938	6271.195801
1271.145508	6380.071777
1270.079102	6453.736816
1269.011719	6267.213379
1267.945313	6317.437500
1266.877930	6341.870117
1265.810547	6314.761230
1264.743164	6357.916992
1263.674805	6412.760254
1262.607422	6160.937500
1261.539063	6278.985840
1260.470703	6254.256836
1259.401367	6206.144531
1258.333008	6214.183594
1257.263672	6002.418457
1256.194336	6061.927734
1255.125000	6098.038574
1254.054688	6089.733887
1252.985352	6205.256836
1251.915039	6175.910156
1250.843750	6127.892090
1249.773438	6198.970703
1248.702148	5989.898438
1247.630859	6025.967285
1246.559570	5924.353516
1245.488281	5986.081543
1244.416016	5900.844727
1243.343750	6032.505859
1242.271484	5898.335938
1241.199219	6032.271973
1240.125977	5830.577637
1239.053711	6146.199707
1237.980469	6035.411621
1236.906250	5980.563477
1235.833008	5881.498535
1234.758789	5931.460449
1233.684570	5941.834961
1232.610352	5989.434570
1231.536133	5813.679199
1230.460938	5900.825195
1229.385742	5971.656250
1228.310547	6051.755859
1227.235352	6050.466797
1226.159180	5844.671875
1225.083008	5852.719727
1224.006836	5835.211426
1222.930664	5919.897461
1221.853516	5916.312988
1220.777344	5850.050781
1219.700195	5988.060059
1218.622070	6012.307617
1217.544922	5971.584961
1216.466797	6019.019531
1215.388672	5971.354980
1214.310547	6102.233398
1213.232422	6036.026855
1212.153320	6025.467773
1211.074219	6051.984375
1209.995117	6050.691406
1208.916016	6165.198730
1207.835938	6078.207520
1206.755859	6160.248535
1205.675781	6080.238281
1204.595703	6185.382813
1203.514648	6253.465820
1202.434570	6094.842285
1201.353516	6063.475098
1200.271484	5904.958984
1199.190430	6109.422852
1198.108398	6001.806641
1197.026367	6069.838867
1195.944336	6015.407715
1194.862305	5963.309082
1193.779297	5996.667969
1192.696289	6048.480469
1191.613281	6024.103516
1190.530273	5752.824707
1189.446289	5894.631348
1188.362305	5775.730957
1187.278320	5781.411133
1186.194336	5943.869629
1185.109375	5878.051270
1184.024414	5856.048828
1182.939453	5744.194336
1181.854492	5860.446777
1180.768555	5808.520020
1179.683594	5678.324707
1178.597656	5684.012207
1177.510742	5641.361816
1176.424805	5713.787109
1175.337891	5724.062988
1174.250977	5812.540039
1173.164063	5512.332520
1172.077148	5628.406250
1170.989258	5755.922852
1169.901367	5734.001465
1168.813477	5645.455566
1167.724609	5600.594238
1166.636719	5707.334961
1165.547852	5749.735352
1164.458984	5794.412598
1163.369141	5733.489258
1162.280273	5732.254883
1161.190430	5737.903320
1160.100586	5796.305176
1159.010742	5772.124023
1157.919922	5883.226074
1156.829102	5735.253418
1155.738281	5759.226563
1154.647461	5664.042969
1153.555664	5848.375488
1152.464844	5693.665039
1151.373047	5733.653320
1150.280273	5826.277832
1149.188477	5939.461426
1148.095703	5752.826172
1147.002930	5703.540527
1145.910156	5768.642090
1144.817383	5726.233398
1143.723633	5530.658203
1142.629883	5744.333008
1141.536133	5761.375000
1140.441406	5657.311523
1139.347656	5603.548828
1138.252930	5568.079590
1137.158203	5717.579102
1136.062500	5567.955078
1134.967773	5630.658203
1133.872070	5656.823242
1132.776367	5616.815430
1131.679688	5533.487305
1130.583984	5659.993164
1129.487305	5578.970703
1128.390625	5664.381348
1127.292969	5597.065918
1126.196289	5659.650391
1125.098633	5599.197754
1124.000977	5572.932617
1122.903320	5594.494629
1121.804688	5604.664551
1120.706055	5614.829590
1119.607422	5620.438965
1118.508789	5603.295410
1117.409180	5495.178711
1116.310547	5685.002930
1115.210938	5481.427246
1114.110352	5602.980469
1113.010742	5508.591309
1111.910156	5416.514160
1110.809570	5517.557129
1109.708984	5420.975586
1108.607422	5678.640625
1107.506836	5607.035156
1106.405273	5505.956055
1105.303711	5552.410156
1104.201172	5494.488770
1103.098633	5345.869141
1101.996094	5471.691895
1100.893555	5393.420410
1099.791016	5467.045410
1098.687500	5486.250977
1097.583984	5330.995117
1096.480469	5535.960938
1095.376953	5455.494141
1094.272461	5445.250000
1093.167969	5564.037109
1092.063477	5553.772949
1090.958008	5595.553711
1089.853516	5519.683105
1088.748047	5538.834961
1087.642578	5548.933594
1086.536133	5622.326660
1085.430664	5677.605957
1084.324219	5592.758789
1083.217773	5681.907227
1082.110352	5669.374023
1081.003906	5715.559570
1079.896484	5770.755371
1078.789063	5812.383301
1077.680664	5793.060547
1076.573242	5737.645508
1075.464844	5801.809570
1074.356445	5685.523438
1073.247070	5783.491211
1072.138672	5644.716309
1071.029297	5704.334961
1069.919922	5712.101074
1068.809570	5717.610840
1067.700195	5581.221680
1066.589844	5564.238281
1065.479492	5677.838867
1064.368164	5541.546387
1063.257813	5587.590820
1062.146484	5579.618164
1061.035156	5555.903320
1059.922852	5457.985840
1058.811523	5544.476563
1057.699219	5390.406738
1056.586914	5456.646973
1055.473633	5473.426758
1054.361328	5416.066895
1053.248047	5414.879883
1052.134766	5429.410645
1051.021484	5410.260254
1049.907227	5456.207031
1048.792969	5459.497559
1047.678711	5272.094238
1046.564453	5318.039063
1045.449219	5420.024902
1044.333984	5378.479492
1043.218750	5395.230469
1042.103516	5400.768555
1040.987305	5401.822754
1039.871094	5434.235840
1038.754883	5390.491211
1037.638672	5398.262695
1036.521484	5453.039063
1035.404297	5393.651367
1034.287109	5392.465332
1033.169922	5310.745605
1032.051758	5356.544922
1030.933594	5442.572754
1029.815430	5282.649902
1028.697266	5386.535645
1027.578125	5298.201172
1026.458984	5245.650391
1025.339844	5277.999023
1024.220703	5417.522461
1023.100586	5244.417480
1021.980469	5236.565430
1020.860352	5376.004395
1019.740234	5325.733887
1018.619141	5378.095703
1017.498047	5289.933594
1016.376953	5259.781250
1015.255859	5238.558105
1014.133789	5201.743652
1013.011719	5240.703125
1011.889648	5241.774414
1010.767578	5296.297363
1009.644531	5283.994141
1008.521484	5322.899414
1007.398438	5254.951660
1006.274414	5296.070313
1005.151367	5346.069336
1004.027344	5476.119141
1002.902344	5390.405762
1001.778320	5415.893066
1000.653320	5365.794434
999.528320	5422.387207
998.403320	5523.390625
997.278320	5348.906738
996.152344	5312.190430
995.026367	5339.878906
993.900391	5318.718262
992.773438	5268.715332
991.646484	5433.962402
990.519531	5326.277344
989.392578	5407.158691
988.265625	5361.613281
987.137695	5398.112305
986.009766	5263.932129
984.881836	5342.537598
983.752930	5336.922363
982.624023	5466.418945
981.495117	5270.336914
980.366211	5196.107910
979.236328	5285.706055
978.106445	5388.541992
976.976563	5464.782227
975.846680	5297.670898
974.715820	5347.358887
973.585938	5315.217285
972.454102	5280.879395
971.323242	5284.125977
970.191406	5170.266602
969.060547	5310.495117
967.927734	5141.466309
966.795898	5259.557617
965.663086	5253.973145
964.530273	5208.663086
963.397461	5211.917969
962.264648	5292.383301
961.130859	5174.309570
959.997070	5336.334961
958.863281	5321.919434
957.729492	5318.530273
956.594727	5257.848145
955.459961	5366.833984
954.325195	5303.964355
953.189453	5269.750488
952.053711	5365.449219
950.917969	5472.110840
949.782227	5272.829590
948.646484	5269.454102
947.509766	5206.687500
946.373047	5315.486328
945.235352	5144.999512
944.098633	5165.833984
942.960938	5184.460938
941.823242	5306.349609
940.685547	5232.671875
939.546875	5238.092285
938.408203	5333.536621
937.269531	5268.682617
936.129883	5405.777344
934.991211	5286.077148
933.851563	5311.221680
932.711914	5437.247559
931.571289	5365.861328
930.431641	5279.160156
929.291016	5238.526367
928.149414	5252.694336
927.008789	5354.490234
925.867188	5370.815430
924.725586	5341.145020
923.583984	5202.017090
922.441406	5218.363770
921.299805	5302.543945
920.157227	5255.410156
919.013672	5308.918945
917.871094	5285.860352
916.727539	5149.115723
915.583984	5248.516113
914.439453	5175.219238
913.295898	5184.983887
912.151367	5033.090820
911.006836	5221.971191
909.861328	5122.541504
908.716797	5114.843750
907.571289	5185.719727
906.424805	5138.733398
905.279297	5155.032227
904.132813	5197.496582
902.986328	5318.442383
901.839844	5206.063477
900.692383	5113.351074
899.545898	5131.814453
898.398438	5141.554688
897.250000	5133.865234
896.102539	5147.955078
894.954102	5146.797852
893.805664	5132.580566
892.656250	5157.541016
891.507813	5276.043945
890.358398	5192.199707
889.208984	5119.266113
888.058594	5176.818359
886.908203	5071.314453
885.758789	5141.890137
884.607422	5147.250977
883.457031	4978.827637
882.305664	4982.050293
881.154297	5111.205078
880.002930	4955.927246
878.850586	4941.789063
877.698242	5088.223145
876.545898	5102.261719
875.393555	5103.280273
874.240234	5152.001953
873.086914	5012.097168
871.933594	5058.649414
870.780273	5120.347656
869.625977	5110.527344
868.471680	5003.244629
867.317383	4943.649414
866.162109	5133.047363
865.007813	4904.622559
863.852539	5067.975586
862.696289	4999.764160
861.541016	5007.286621
860.384766	4928.306152
859.228516	5123.934570
858.072266	5304.343750
856.915039	5071.916016
855.757813	5034.040527
854.600586	4903.299805
853.442383	4954.020508
852.285156	5011.195313
851.126953	5027.330566
849.968750	5108.200684
848.809570	4997.007324
847.650391	5023.919434
846.491211	5124.144043
845.332031	5114.359375
844.171875	4949.372559
843.012695	4894.372559
841.851563	4944.976563
840.691406	4958.936035
839.530273	4951.351563
838.369141	4883.480469
837.208008	4910.359375
836.046875	4915.703613
834.884766	5058.756348
833.722656	4928.534180
832.560547	4914.512207
831.397461	5072.518555
830.234375	5034.821777
829.071289	5104.606934
827.908203	4903.608398
826.744141	4954.056152
825.580078	4989.445313
824.416016	5009.786133
823.251953	4980.739746
822.086914	4977.462891
820.921875	4989.208008
819.756836	4979.493164
818.590820	4896.855469
817.425781	4955.787109
816.259766	4997.540039
815.092773	4940.674805
813.926758	4772.399902
812.759766	4867.727051
811.592773	4853.768555
810.424805	4814.117676
809.257813	4768.061523
808.089844	4906.112305
806.920898	4840.794922
805.752930	4766.948242
804.583984	4887.791016
803.415039	4805.412598
802.246094	4844.942871
801.076172	4816.050781
799.906250	4703.823730
798.736328	4863.000977
797.566406	4851.212891
796.395508	4764.681152
795.224609	4849.003418
794.053711	4854.302734
792.881836	4900.149414
791.710938	4873.427734
790.538086	4910.715332
789.366211	4879.737793
788.194336	4904.212402
787.021484	4909.489746
785.848633	5017.065918
784.674805	4834.803223
783.500977	4910.392090
782.327148	4843.247070
781.153320	4886.858398
779.979492	4981.541992
778.804688	4961.249512
777.629883	4938.838379
776.454102	4788.792480
775.279297	4942.964355
774.103516	4805.743652
772.927734	4940.707031
771.750977	4860.936523
770.575195	4751.452148
769.398438	4818.350098
768.220703	4946.813965
767.043945	4898.965820
765.866211	4940.306641
764.688477	4932.810059
763.510742	4967.757324
762.332031	4953.892090
761.153320	4997.302246
759.974609	5038.571777
758.794922	5192.188477
757.616211	5252.470215
756.436523	5386.894531
755.255859	5398.373535
754.076172	5655.557129
752.895508	5789.795410
751.714844	6084.880371
750.533203	6280.343750
749.352539	6725.433594
748.170898	6941.817383
746.988281	7191.945313
745.806641	7365.826172
744.624023	7438.139648
743.441406	7322.289063
742.258789	7246.644043
741.075195	6947.070801
739.891602	6985.613770
738.708008	6899.537109
737.523438	6870.506836
736.339844	6797.160645
735.155273	6696.411621
733.969727	6608.367676
732.785156	6663.808105
731.599609	6388.111328
730.414063	6344.476074
729.227539	6168.055176
728.041992	5804.144043
726.855469	5756.457031
725.667969	5576.077637
724.481445	5208.339844
723.293945	5171.349121
722.106445	5027.013672
720.918945	4891.163086
719.730469	4976.310059
718.541992	4876.294922
717.353516	4946.683105
716.164063	4836.206055
714.975586	4885.548340
713.786133	4840.289551
712.595703	4898.012207
711.406250	4800.250977
710.215820	4792.846680
709.025391	4772.847168
707.833984	4874.616211
706.642578	4657.315430
705.451172	4731.785156
704.259766	4695.033203
703.068359	4687.661133
701.875977	4711.745605
700.683594	4737.915527
699.490234	4812.279297
698.297852	4779.739746
697.104492	4814.254883
695.910156	4947.194336
694.716797	4985.841797
693.522461	5112.399414
692.328125	5084.012695
691.132813	4986.584473
689.938477	4933.134277
688.743164	4950.822266
687.547852	4993.595703
686.351563	4954.813965
685.155273	4930.681152
683.958984	4877.303223
682.762695	4780.076660
681.565430	4969.047852
680.368164	4890.638184
679.170898	4743.368652
677.973633	4690.093750
676.775391	4872.649902
675.577148	4708.794922
674.378906	4859.974609
673.179688	4848.427246
671.980469	4868.157715
670.781250	4796.166016
669.581055	4730.458984
668.381836	4883.541016
667.181641	4726.193848
665.980469	4729.268555
664.780273	4773.980957
663.579102	4781.205078
662.377930	4780.102051
661.175781	4818.529297
659.973633	4763.335449
658.771484	4876.612793
657.569336	4865.091309
656.367188	4766.273438
655.164063	4839.985840
653.960938	4791.082031
652.756836	4808.670410
651.552734	4801.329590
650.348633	4889.498535
649.144531	4956.868164
647.939453	4866.487305
646.735352	4967.027344
645.529297	4992.845703
644.324219	4979.249023
643.118164	4936.631348
641.912109	4910.616211
640.706055	5006.883789
639.499023	4854.477051
638.292969	4896.854980
637.084961	4850.162109
635.877930	4952.564453
634.669922	4905.879883
633.461914	4797.130859
632.253906	4818.780762
631.044922	4854.900391
629.836914	4642.833984
628.626953	4672.773926
627.417969	4715.102539
626.208008	4645.812988
624.998047	4828.626953
623.788086	4715.962402
622.577148	4702.480469
621.366211	4641.515137
620.155273	4712.689941
618.944336	4754.938477
617.732422	4681.622559
616.520508	4725.921387
615.308594	4702.141602
614.095703	4635.073730
612.882813	4728.824219
611.669922	4612.318848
610.457031	4689.547363
609.243164	4597.823242
608.029297	4627.650879
606.815430	4513.334473
605.600586	4559.635254
604.385742	4595.624023
603.170898	4571.926270
601.955078	4675.779297
600.740234	4703.489258
599.524414	4583.143066
598.307617	4536.856934
597.091797	4661.172363
595.875000	4662.146973
594.658203	4486.456543
593.440430	4614.804199
592.222656	4539.816406
591.004883	4567.503906
589.787109	4500.770508
588.568359	4512.038574
587.349609	4607.408203
586.130859	4458.674805
584.912109	4601.171387
583.692383	4452.507813
582.472656	4648.226074
581.251953	4532.404297
580.032227	4451.460449
578.811523	4538.495117
577.589844	4611.155762
576.369141	4579.379883
575.147461	4676.556152
573.925781	4644.779297
572.703125	4678.479004
571.481445	4667.167969
570.258789	4696.756348
569.035156	4671.136230
567.812500	4796.767578
566.588867	4765.005371
565.365234	4741.428711
564.140625	4852.658691
562.916992	4843.365723
561.692383	4811.620605
560.466797	4771.726563
559.242188	4772.660156
558.016602	4783.792480
556.791016	4723.536621
555.564453	4820.314941
554.337891	4698.920410
553.111328	4667.258301
551.884766	4462.412598
550.657227	4663.055664
549.429688	4547.918945
548.202148	4577.406738
546.974609	4517.308105
545.746094	4548.823730
544.517578	4696.308105
543.288086	4644.360352
542.058594	4606.672852
540.829102	4619.837402
539.599609	4671.620605
538.370117	4619.725098
537.139648	4620.685059
535.909180	4694.777344
534.677734	4539.330078
533.446289	4562.643066
532.214844	4693.538574
530.983398	4595.027832
529.750977	4527.000000
528.519531	4661.869141
527.286133	4681.068848
526.053711	4708.370117
524.820313	4668.759277
523.586914	4777.121582
522.353516	4729.407227
521.119141	4780.980957
519.884766	4692.780273
518.650391	4738.263184
517.415039	4735.138672
516.179688	4620.697266
514.944336	4631.765137
513.708984	4760.163086
