#Wave		#Intensity
1585.210938	1343.733521
1584.209961	1408.672241
1583.208984	1363.432129
1582.208008	1430.558105
1581.206055	1447.734375
1580.204102	1382.549438
1579.202148	1354.817383
1578.200195	1419.394897
1577.198242	1431.570923
1576.195313	1436.261475
1575.192383	1418.512939
1574.189453	1395.786865
1573.186523	1385.529907
1572.182617	1325.448364
1571.178711	1414.847168
1570.174805	1387.159668
1569.170898	1439.160156
1568.166992	1366.670044
1567.162109	1386.297974
1566.158203	1440.754639
1565.153320	1398.163086
1564.147461	1373.000244
1563.142578	1380.176392
1562.136719	1364.972900
1561.130859	1357.232910
1560.125000	1324.643433
1559.119141	1371.579346
1558.113281	1371.295288
1557.106445	1373.495117
1556.099609	1403.009155
1555.092773	1335.686035
1554.084961	1427.250000
1553.078125	1362.431274
1552.070313	1357.186890
1551.062500	1371.789673
1550.054688	1376.465942
1549.045898	1368.742065
1548.038086	1353.584106
1547.029297	1373.132568
1546.020508	1357.979858
1545.011719	1394.861938
1544.001953	1332.647217
1542.992188	1364.566162
1541.982422	1317.239380
1540.972656	1401.133667
1539.962891	1294.419067
1538.952148	1435.196167
1537.942383	1311.200928
1536.931641	1357.925049
1535.919922	1407.102661
1534.909180	1391.976807
1533.897461	1347.194092
1532.886719	1346.915161
1531.874023	1405.937622
1530.862305	1334.005493
1529.850586	1434.994019
1528.837891	1370.493530
1527.825195	1426.993286
1526.812500	1416.824463
1525.799805	1367.174561
1524.786133	1361.956909
1523.772461	1435.678955
1522.758789	1331.797485
1521.745117	1348.782104
1520.731445	1410.134644
1519.716797	1434.490234
1518.702148	1389.836670
1517.687500	1399.403809
1516.672852	1436.062378
1515.657227	1435.765015
1514.642578	1405.921143
1513.626953	1403.168335
1512.610352	1388.110596
1511.594727	1318.924072
1510.579102	1377.694946
1509.562500	1345.434082
1508.545898	1350.073730
1507.529297	1362.087280
1506.511719	1334.765625
1505.494141	1420.505981
1504.477539	1326.841431
1503.458984	1348.676025
1502.441406	1407.342896
1501.423828	1431.607300
1500.405273	1303.646606
1499.386719	1413.832153
1498.368164	1386.544556
1497.348633	1354.361084
1496.330078	1341.815308
1495.310547	1380.777832
1494.291016	1378.039673
1493.271484	1402.269287
1492.250977	1394.625732
1491.231445	1401.688232
1490.210938	1342.597778
1489.190430	1406.006226
1488.168945	1351.837280
1487.148438	1346.660156
1486.126953	1339.037109
1485.105469	1419.525635
1484.083984	1328.694214
1483.061523	1372.454834
1482.040039	1433.318726
1481.017578	1359.658691
1479.995117	1383.825928
1478.971680	1425.094116
1477.949219	1351.481323
1476.925781	1375.635132
1475.902344	1363.135376
1474.878906	1367.737549
1473.855469	1423.617188
1472.831055	1413.556396
1471.806641	1366.886719
1470.782227	1408.089355
1469.757813	1451.714722
1468.733398	1368.475708
1467.708008	1485.256348
1466.682617	1348.401245
1465.657227	1374.937622
1464.631836	1362.465698
1463.605469	1362.182983
1462.579102	1420.371948
1461.552734	1415.205566
1460.526367	1441.700195
1459.500000	1492.531738
1458.472656	1431.364624
1457.445313	1418.898560
1456.417969	1374.804932
1455.390625	1418.309570
1454.362305	1410.718262
1453.334961	1417.720703
1452.306641	1400.407471
1451.277344	1417.131958
1450.249023	1460.582275
1449.219727	1516.163208
1448.191406	1445.400269
1447.162109	1486.388550
1446.131836	1449.656250
1445.102539	1408.083740
1444.072266	1419.927368
1443.041992	1402.645264
1442.011719	1453.304443
1440.981445	1436.022461
1439.950195	1392.070313
1438.918945	1413.603394
1437.887695	1391.491699
1436.856445	1439.676514
1435.825195	1432.107666
1434.792969	1436.655396
1433.760742	1397.601685
1432.728516	1428.792969
1431.696289	1421.232422
1430.663086	1350.737183
1429.629883	1447.263184
1428.596680	1427.604858
1427.563477	1410.373779
1426.530273	1356.869873
1425.496094	1378.351074
1424.461914	1351.470093
1423.427734	1372.943237
1422.393555	1394.407471
1421.358398	1275.726074
1420.323242	1333.436035
1419.288086	1313.837402
1418.252930	1359.442017
1417.217773	1405.027710
1416.181641	1327.498901
1415.145508	1387.550781
1414.109375	1336.596680
1413.073242	1365.263916
1412.036133	1340.863281
1411.000000	1371.928589
1409.962891	1301.734863
1408.924805	1378.587524
1407.887695	1404.806152
1406.849609	1404.513428
1405.812500	1437.941284
1404.773438	1375.030884
1403.735352	1336.222534
1402.697266	1302.244507
1401.658203	1403.050537
1400.619141	1381.103149
1399.580078	1359.164795
1398.540039	1356.476318
1397.500977	1351.384277
1396.460938	1339.081909
1395.420898	1362.838623
1394.380859	1401.003906
1393.339844	1314.218262
1392.298828	1340.367065
1391.257813	1440.954224
1390.216797	1399.835083
1389.175781	1399.542969
1388.133789	1363.249512
1387.091797	1382.161621
1386.049805	1338.689575
1385.007813	1395.976196
1383.964844	1338.130737
1382.922852	1357.031982
1381.879883	1397.498901
1380.835938	1375.637817
1379.792969	1423.272095
1378.749023	1307.986938
1377.706055	1310.108765
1376.661133	1381.672363
1375.617188	1302.379028
1374.573242	1393.062866
1373.528320	1390.378540
1372.483398	1344.628906
1371.438477	1416.110229
1370.392578	1348.849976
1369.347656	1456.166382
1368.301758	1393.706787
1367.255859	1374.294678
1366.208984	1402.682129
1365.163086	1392.832397
1364.116211	1409.261108
1363.069336	1442.399292
1362.022461	1384.795532
1360.974609	1331.989990
1359.927734	1315.005127
1358.879883	1329.046265
1357.832031	1412.263306
1356.783203	1421.507935
1355.735352	1402.133667
1354.686523	1332.701538
1353.637695	1377.710449
1352.588867	1413.168091
1351.539063	1381.898438
1350.490234	1403.047607
1349.440430	1386.082520
1348.390625	1376.267700
1347.339844	1387.882080
1346.290039	1418.532349
1345.239258	1411.096069
1344.188477	1377.492920
1343.137695	1367.689697
1342.085938	1448.257935
1341.034180	1512.149170
1339.982422	1454.781616
1338.930664	1466.359375
1337.878906	1413.777588
1336.826172	1432.485596
1335.773438	1498.687744
1334.720703	1427.135132
1333.667969	1417.338989
1332.614258	1426.535889
1331.561523	1388.266602
1330.507813	1409.328491
1329.453125	1404.288208
1328.399414	1465.655029
1327.344727	1474.831543
1326.290039	1370.214600
1325.235352	1459.990967
1324.180664	1424.139771
1323.125000	1423.840454
1322.070313	1395.117554
1321.014648	1392.456055
1319.958008	1491.603516
1318.902344	1427.377319
1317.845703	1424.710449
1316.789063	1422.044556
1315.732422	1438.304688
1314.675781	1440.367188
1313.618164	1409.323730
1312.560547	1373.564941
1311.502930	1396.912109
1310.445313	1450.970337
1309.386719	1438.851563
1308.329102	1464.532104
1307.270508	1386.289063
1306.210938	1341.135132
1305.152344	1355.016479
1304.092773	1387.773071
1303.033203	1382.761230
1301.973633	1422.575562
1300.914063	1389.254272
1299.853516	1358.305176
1298.792969	1353.303345
1297.732422	1435.519043
1296.671875	1402.222656
1295.611328	1343.022339
1294.549805	1319.182129
1293.488281	1325.969360
1292.426758	1358.655029
1291.364258	1393.681152
1290.302734	1343.959229
1289.240234	1378.973389
1288.177734	1348.097046
1287.114258	1357.221191
1286.051758	1288.734985
1284.988281	1349.594116
1283.924805	1328.152466
1282.861328	1370.175659
1281.796875	1355.787720
1280.732422	1308.516602
1279.667969	1301.193848
1278.603516	1300.918579
1277.539063	1349.945801
1276.473633	1333.229614
1275.408203	1243.771484
1274.342773	1316.241821
1273.277344	1353.495117
1272.210938	1292.232178
1271.145508	1296.648193
1270.079102	1289.340820
1269.011719	1300.786621
1267.945313	1244.272827
1266.877930	1295.550049
1265.810547	1285.906494
1264.743164	1302.026489
1263.674805	1376.671387
1262.607422	1327.223267
1261.539063	1259.073608
1260.470703	1284.544312
1259.401367	1300.646973
1258.333008	1276.983154
1257.263672	1304.771851
1256.194336	1248.387695
1255.125000	1262.146729
1254.054688	1322.635986
1252.985352	1270.956299
1251.915039	1291.708862
1250.843750	1340.476440
1249.773438	1328.517578
1248.702148	1267.542725
1247.630859	1201.926147
1246.559570	1276.337646
1245.488281	1329.721924
1244.416016	1317.777588
1243.343750	1254.537354
1242.271484	1268.258789
1241.199219	1233.026245
1240.125977	1244.415894
1239.053711	1295.408325
1237.980469	1239.227783
1236.906250	1273.897217
1235.833008	1292.253296
1234.758789	1284.994507
1233.684570	1282.393677
1232.610352	1300.735840
1231.536133	1267.889160
1230.460938	1251.337769
1229.385742	1248.745850
1228.310547	1320.552246
1227.235352	1322.595215
1226.159180	1261.891357
1225.083008	1284.856689
1224.006836	1249.738770
1222.930664	1291.276245
1221.853516	1270.103271
1220.777344	1237.332153
1219.700195	1241.710083
1218.622070	1266.970215
1217.544922	1224.940552
1216.466797	1291.943604
1215.388672	1280.072998
1214.310547	1256.614990
1213.232422	1230.848755
1212.153320	1274.618164
1211.074219	1327.636719
1209.995117	1239.326172
1208.916016	1276.117432
1207.835938	1303.630737
1206.755859	1250.106812
1205.675781	1303.073486
1204.595703	1240.316284
1203.514648	1337.219116
1202.434570	1253.663940
1201.353516	1258.020752
1200.271484	1306.304565
1199.190430	1266.728638
1198.108398	1289.567993
1197.026367	1226.906860
1195.944336	1261.295166
1194.862305	1214.833618
1193.779297	1311.554565
1192.696289	1205.078979
1191.613281	1207.128784
1190.530273	1197.639771
1189.446289	1211.225586
1188.362305	1245.564941
1187.278320	1249.910156
1186.194336	1258.864502
1185.109375	1242.458740
1184.024414	1251.410645
1182.939453	1223.492676
1181.854492	1239.355469
1180.768555	1259.817749
1179.683594	1275.665894
1178.597656	1215.536011
1177.510742	1231.386597
1176.424805	1224.218628
1175.337891	1177.942261
1174.250977	1202.991089
1173.164063	1301.618774
1172.077148	1193.277222
1170.989258	1183.825928
1169.901367	1199.658813
1168.813477	1254.545654
1167.724609	1254.275879
1166.636719	1295.346924
1165.547852	1191.738281
1164.458984	1285.606567
1163.369141	1255.491821
1162.280273	1252.926880
1161.190430	1266.422485
1160.100586	1252.387329
1159.010742	1178.733398
1157.919922	1316.045044
1156.829102	1260.747070
1155.738281	1203.181030
1154.647461	1251.038574
1153.555664	1234.733398
1152.464844	1243.628296
1151.373047	1213.592773
1150.280273	1181.280762
1149.188477	1226.802124
1148.095703	1240.267212
1147.002930	1219.409180
1145.910156	1253.455933
1144.817383	1255.472046
1143.723633	1202.615112
1142.629883	1206.927124
1141.536133	1243.232056
1140.441406	1201.835938
1139.347656	1244.979248
1138.252930	1269.832764
1137.158203	1235.307617
1136.062500	1260.152222
1134.967773	1250.750122
1133.872070	1223.096924
1132.776367	1209.143921
1131.679688	1240.814941
1130.583984	1256.509399
1129.487305	1297.276001
1128.390625	1271.921509
1127.292969	1269.367188
1126.196289	1232.637207
1125.098633	1309.820435
1124.000977	1250.322876
1122.903320	1254.605835
1121.804688	1252.057495
1120.706055	1272.269897
1119.607422	1228.759888
1118.508789	1294.468140
1117.409180	1196.384155
1116.310547	1232.508667
1115.210938	1214.053101
1114.110352	1125.142090
1113.010742	1172.620850
1111.910156	1188.270508
1110.809570	1297.046143
1109.708984	1276.325195
1108.607422	1257.883545
1107.506836	1266.690552
1106.405273	1200.598022
1105.303711	1236.642212
1104.201172	1234.104858
1103.098633	1231.568481
1101.996094	1183.681396
1100.893555	1244.635498
1099.791016	1221.698730
1098.687500	1176.110718
1097.583984	1189.448608
1096.480469	1218.636353
1095.376953	1256.869751
1094.272461	1240.747192
1093.167969	1172.567627
1092.063477	1271.890869
1090.958008	1244.461914
1089.853516	1196.685303
1088.748047	1196.424561
1087.642578	1148.679077
1086.536133	1204.945801
1085.430664	1225.024780
1084.324219	1236.056152
1083.217773	1235.786621
1082.110352	1230.999512
1081.003906	1271.378906
1079.896484	1219.173706
1078.789063	1268.566772
1077.680664	1187.047119
1076.573242	1213.862915
1075.464844	1209.086304
1074.356445	1199.801025
1073.247070	1222.086670
1072.138672	1246.616699
1071.029297	1183.238159
1069.919922	1212.272339
1068.809570	1187.226440
1067.700195	1193.723755
1066.589844	1206.973633
1065.479492	1161.683105
1064.368164	1246.960449
1063.257813	1228.684937
1062.146484	1174.419678
1061.035156	1234.895142
1059.922852	1227.878052
1058.811523	1225.360840
1057.699219	1222.844482
1056.586914	1195.608032
1055.473633	1222.308716
1054.361328	1159.141724
1053.248047	1224.018799
1052.134766	1261.922485
1051.021484	1216.747314
1049.907227	1218.724976
1048.792969	1207.237915
1047.678711	1242.868164
1046.564453	1215.679932
1045.449219	1154.866699
1044.333984	1251.017822
1043.218750	1221.603882
1042.103516	1234.781494
1040.987305	1182.979004
1039.871094	1196.159058
1038.754883	1186.938232
1037.638672	1191.155396
1036.521484	1219.994385
1035.404297	1161.537354
1034.287109	1203.795166
1033.169922	1176.685791
1032.051758	1187.609741
1030.933594	1220.889404
1029.815430	1191.558350
1028.697266	1186.825928
1027.578125	1282.651733
1026.458984	1172.898804
1025.339844	1148.070923
1024.220703	1194.713257
1023.100586	1227.939331
1021.980469	1133.919556
1020.860352	1267.567627
1019.740234	1227.127686
1018.619141	1144.323120
1017.498047	1179.753296
1016.376953	1215.167725
1015.255859	1221.587158
1014.133789	1212.402954
1013.011719	1185.397095
1011.889648	1156.175415
1010.767578	1247.235718
1009.644531	1126.717651
1008.521484	1122.016479
1007.398438	1141.800171
1006.274414	1190.503296
1005.151367	1232.510376
1004.027344	1154.389038
1002.902344	1131.896240
1001.778320	1140.539063
1000.653320	1169.183105
999.528320	1144.479370
998.403320	1190.883911
997.278320	1201.727051
996.152344	1199.240234
995.026367	1232.279663
993.900391	1214.248291
992.773438	1180.689331
991.646484	1151.582886
990.519531	1211.223511
989.392578	1148.854858
988.265625	1190.730469
987.137695	1201.551025
986.009766	1216.799438
984.881836	1158.916260
983.752930	1253.921997
982.624023	1149.542725
981.495117	1149.287720
980.366211	1149.032837
979.236328	1184.192993
978.106445	1192.781982
976.976563	1146.055542
975.846680	1209.948242
974.715820	1176.507446
973.585938	1213.832886
972.454102	1173.774414
971.323242	1151.413574
970.191406	1171.043335
969.060547	1175.201172
967.927734	1201.442261
966.795898	1145.974121
965.663086	1229.606323
964.530273	1165.328003
963.397461	1173.895142
962.264648	1213.343384
961.130859	1173.372803
959.997070	1195.162598
958.863281	1124.349121
957.729492	1227.692261
956.594727	1198.771729
955.459961	1194.098511
954.325195	1209.250977
953.189453	1211.183716
952.053711	1226.325562
950.917969	1215.046387
949.782227	1203.772095
948.646484	1150.699097
947.509766	1203.235352
946.373047	1169.978882
945.235352	1147.730713
944.098633	1118.897583
942.960938	1162.602661
941.823242	1175.526733
940.685547	1164.280518
939.546875	1172.805664
938.408203	1190.109863
937.269531	1176.672363
936.129883	1200.552246
934.991211	1143.232178
933.851563	1116.650879
932.711914	1160.267822
931.571289	1197.286621
930.431641	1172.903076
929.291016	1168.257202
928.149414	1176.761353
927.008789	1207.170288
925.867188	1174.044434
924.725586	1178.161499
923.583984	1241.390503
922.441406	1173.256348
921.299805	1170.805176
920.157227	1247.120605
919.013672	1146.218994
917.871094	1161.270874
916.727539	1178.502441
915.583984	1158.564575
914.439453	1171.417847
913.295898	1197.375122
912.151367	1144.678711
911.006836	1172.814087
909.861328	1172.551147
908.716797	1205.033569
907.571289	1161.112427
906.424805	1191.400513
905.279297	1127.867920
904.132813	1199.590088
902.986328	1199.320801
901.839844	1183.790894
900.692383	1174.806519
899.545898	1159.288940
898.398438	1152.492554
897.250000	1117.383423
896.102539	1169.395874
894.954102	1203.967529
893.805664	1203.696899
892.656250	1183.840576
891.507813	1105.249634
890.358398	1218.111328
889.208984	1150.421387
888.058594	1180.601563
886.908203	1160.772339
885.758789	1158.337891
884.607422	1164.595337
883.457031	1151.299561
882.305664	1166.242798
881.154297	1163.808838
880.002930	1124.472290
878.850586	1145.922119
877.698242	1121.795898
876.545898	1164.929688
875.393555	1203.706177
874.240234	1164.404541
873.086914	1135.959717
871.933594	1172.548950
870.780273	1141.948120
869.625977	1174.186401
868.471680	1186.916992
867.317383	1115.190308
866.162109	1143.082764
865.007813	1173.126831
863.852539	1149.058472
862.696289	1176.924072
861.541016	1133.398804
860.384766	1176.392578
859.228516	1132.886841
858.072266	1160.730469
856.915039	1121.569824
855.757813	1099.710938
854.600586	1166.423706
853.442383	1129.447632
852.285156	1168.055420
851.126953	1174.266968
849.968750	1104.942505
848.809570	1119.795776
847.650391	1186.412842
846.491211	1147.325195
845.332031	1190.188232
844.171875	1114.471069
843.012695	1172.408081
841.851563	1118.275757
840.691406	1087.863892
839.530273	1150.074707
838.369141	1108.903198
837.208008	1166.775513
836.046875	1140.684204
834.884766	1131.818726
833.722656	1114.352051
832.560547	1167.868774
831.397461	1174.054688
830.234375	1156.590088
829.071289	1130.536133
827.908203	1136.726074
826.744141	1123.578125
825.580078	1054.592163
824.416016	1110.184082
823.251953	1204.394409
822.086914	1096.801880
820.921875	1085.823364
819.756836	1072.704346
818.590820	1138.953247
817.425781	1119.394531
816.259766	1136.291870
815.092773	1146.750977
813.926758	1125.060547
812.759766	1099.095093
811.592773	1096.703247
810.424805	1120.010498
809.257813	1111.191772
808.089844	1108.798462
806.920898	1142.787109
805.752930	1140.387573
804.583984	1084.512085
803.415039	1109.928345
802.246094	1128.918701
801.076172	1088.046997
799.906250	1053.605225
798.736328	1128.147827
797.566406	1130.027100
796.395508	1091.327637
795.224609	1114.566162
794.053711	1135.659180
792.881836	1075.642578
791.710938	1054.060181
790.538086	1100.751221
789.366211	1083.438232
788.194336	1076.794434
787.021484	1106.393921
785.848633	1095.485107
784.674805	1114.412598
783.500977	1116.288696
782.327148	1143.721924
781.153320	1124.296753
779.979492	1117.653687
778.804688	1140.810669
777.629883	1123.527222
776.454102	1074.340332
775.279297	1140.029663
774.103516	1063.217651
772.927734	1101.241943
771.750977	1143.499634
770.575195	1132.613525
769.398438	1136.603760
768.220703	1102.359985
767.043945	1063.884644
765.866211	1042.411133
764.688477	1120.707275
763.510742	1124.695190
762.332031	1105.343750
761.153320	1107.212158
759.974609	1111.200073
758.794922	1117.306274
757.616211	1112.811401
756.436523	1154.939941
755.255859	1139.844971
754.076172	1148.056885
752.895508	1141.441040
751.714844	1098.835449
750.533203	1174.786255
749.352539	1136.424805
748.170898	1098.080811
746.988281	1152.826538
745.806641	1141.988525
744.624023	1126.926758
743.441406	1158.375977
742.258789	1145.430542
741.075195	1178.973755
739.891602	1214.613770
738.708008	1167.873901
737.523438	1268.953491
736.339844	1264.440796
735.155273	1319.022095
733.969727	1358.808716
732.785156	1345.840332
731.599609	1383.493286
730.414063	1343.114380
729.227539	1252.161499
728.041992	1243.444092
726.855469	1226.302368
725.667969	1207.061768
724.481445	1156.238770
723.293945	1158.078979
722.106445	1111.500488
720.918945	1111.245361
719.730469	1121.510864
718.541992	1154.911865
717.353516	1074.725708
716.164063	1122.840942
714.975586	1112.071899
713.786133	1067.679932
712.595703	1134.674561
711.406250	1071.390869
710.215820	1108.949707
709.025391	1102.395386
707.833984	1112.638550
706.642578	1072.504761
705.451172	1034.487793
704.259766	1130.751953
703.068359	1094.836304
701.875977	1088.293701
700.683594	1052.404175
699.490234	1083.601196
698.297852	1131.547363
697.104492	1095.672363
695.910156	1070.286377
694.716797	1055.381836
693.522461	1061.419556
692.328125	1096.756958
691.132813	1113.244995
689.938477	1085.791626
688.743164	1062.533936
687.547852	1058.106934
686.351563	1114.310547
685.155273	1042.988525
683.958984	1055.286255
682.762695	1057.132324
681.565430	1144.614624
680.368164	1062.909912
679.170898	1123.209717
677.973633	1120.863525
676.775391	1097.650513
675.577148	1047.326050
674.378906	1097.144409
673.179688	1103.147461
671.980469	1092.468750
670.781250	1081.794922
669.581055	1116.971802
668.381836	1072.962280
667.181641	1047.719482
665.980469	1132.858643
664.780273	1088.875732
663.579102	1090.705933
662.377930	1107.102417
661.175781	1077.719360
659.973633	1127.392090
658.771484	1093.858521
657.569336	1091.526978
656.367188	1078.803223
655.164063	1078.554199
653.960938	1128.168945
652.756836	1138.294312
651.552734	1125.571289
650.348633	1133.616211
649.144531	1100.142456
647.939453	1116.490479
646.735352	1101.708984
645.529297	1062.042725
644.324219	1153.045532
643.118164	1090.578857
641.912109	1117.274048
640.706055	1085.930054
639.499023	1158.195801
638.292969	1058.499512
637.084961	1095.531982
635.877930	1136.688110
634.669922	1092.955444
633.461914	1096.841797
632.253906	1123.485596
631.044922	1088.060425
629.836914	1096.081055
628.626953	1102.030396
627.417969	1072.835693
626.208008	1093.254028
624.998047	1022.751526
623.788086	1067.959961
622.577148	1086.299805
621.366211	1086.048462
620.155273	1075.475830
618.944336	1071.099487
617.732422	1085.294678
616.520508	1062.352417
615.308594	1080.667603
614.095703	1129.902222
612.882813	1092.535767
611.669922	1086.100098
610.457031	1061.123413
609.243164	1038.218140
608.029297	1060.632080
606.815430	1068.622437
605.600586	1074.550537
604.385742	1068.127563
603.170898	1059.649902
601.955078	1082.032593
600.740234	1050.932617
599.524414	1054.801514
598.307617	1046.334473
597.091797	1060.478394
595.875000	1060.232666
594.658203	1051.770020
593.440430	1094.655396
592.222656	1036.909668
591.004883	1090.042480
589.787109	1059.004883
588.568359	1093.640991
587.349609	1089.284790
586.130859	1058.268677
584.912109	1119.536377
583.692383	1090.577515
582.472656	1032.939087
581.251953	1051.140747
580.032227	1038.605835
578.811523	1046.557251
577.589844	1062.695313
576.369141	1060.401733
575.147461	1084.715454
573.925781	1098.787109
572.703125	1082.166748
571.481445	1043.056763
570.258789	1083.709595
569.035156	1075.281250
567.812500	1079.119385
566.588867	1080.912354
565.365234	1066.361816
564.140625	1047.733154
562.916992	1100.579346
561.692383	1077.868408
560.466797	1083.741211
559.242188	1116.137207
558.016602	1091.398315
556.791016	1082.987061
555.564453	1092.931030
554.337891	1106.947388
553.111328	1055.737915
551.884766	1039.191895
550.657227	1049.136597
549.429688	1057.039795
548.202148	1126.025757
546.974609	1099.299805
545.746094	1025.775024
544.517578	1117.102783
543.288086	1078.191406
542.058594	1102.347290
540.829102	1150.892578
539.599609	1101.835693
538.370117	1117.839355
537.139648	1050.525146
535.909180	1064.501709
534.677734	1070.347656
533.446289	1049.793701
532.214844	1102.332031
530.983398	1053.365479
529.750977	1079.499756
528.519531	1121.851074
527.286133	1099.280518
526.053711	1034.138184
524.820313	1147.424072
523.586914	1201.880859
522.353516	1240.101685
521.119141	1310.718140
519.884766	1284.083984
518.650391	1180.515991
517.415039	1147.851074
516.179688	1125.320923
514.944336	1072.448975
513.708984	1060.061768
