#Wave		#Intensity
1585.210938	17096.386719
1584.209961	16929.042969
1583.208984	17205.214844
1582.208008	17179.179688
1581.206055	17272.968750
1580.204102	17047.285156
1579.202148	17121.099609
1578.200195	16930.462891
1577.198242	17049.162109
1576.195313	16960.851563
1575.192383	17047.085938
1574.189453	17038.570313
1573.186523	16853.126953
1572.182617	17021.546875
1571.178711	16714.128906
1570.174805	16792.849609
1569.170898	16801.822266
1568.166992	16716.193359
1567.162109	16964.105469
1566.158203	16734.152344
1565.153320	16738.150391
1564.147461	16908.796875
1563.142578	16855.560547
1562.136719	16476.638672
1561.130859	16774.005859
1560.125000	16594.080078
1559.119141	16695.001953
1558.113281	16922.580078
1557.106445	16745.214844
1556.099609	16957.787109
1555.092773	17222.406250
1554.084961	17005.373047
1553.078125	16919.957031
1552.070313	17449.900391
1551.062500	17622.412109
1550.054688	17566.681641
1549.045898	17572.962891
1548.038086	17571.802734
1547.029297	17803.630859
1546.020508	17970.929688
1545.011719	18155.503906
1544.001953	18154.222656
1542.992188	18264.382813
1541.982422	18374.498047
1540.972656	18613.292969
1539.962891	18602.015625
1538.952148	18860.457031
1537.942383	18779.859375
1536.931641	18887.277344
1535.919922	18749.828125
1534.909180	18644.576172
1533.897461	18633.300781
1532.886719	18310.630859
1531.874023	18081.990234
1530.862305	17986.841797
1529.850586	17684.263672
1528.837891	17690.478516
1527.825195	17558.435547
1526.812500	17394.359375
1525.799805	17094.619141
1524.786133	17031.863281
1523.772461	17033.269531
1522.758789	16842.304688
1521.745117	16794.433594
1520.731445	16973.384766
1519.716797	16661.775391
1518.702148	16781.539063
1517.687500	16822.410156
1516.672852	16648.962891
1515.657227	16736.636719
1514.642578	16659.304688
1513.626953	16934.025391
1512.610352	16711.472656
1511.594727	16420.113281
1510.579102	16908.746094
1509.562500	16674.035156
1508.545898	16695.173828
1507.529297	16436.017578
1506.511719	16589.933594
1505.494141	16638.107422
1504.477539	16698.544922
1503.458984	16650.867188
1502.441406	16770.222656
1501.423828	16260.897461
1500.405273	16586.509766
1499.386719	16654.255859
1498.368164	16547.734375
1497.348633	16473.152344
1496.330078	16587.486328
1495.310547	16522.736328
1494.291016	16720.378906
1493.271484	16628.658203
1492.250977	16620.310547
1491.231445	16562.955078
1490.210938	16522.773438
1489.190430	16521.798828
1488.168945	16643.271484
1487.148438	16517.398438
1486.126953	16511.527344
1485.105469	16537.474609
1484.083984	16597.666016
1483.061523	16838.871094
1482.040039	16801.136719
1481.017578	16778.089844
1479.995117	17021.548828
1478.971680	16910.464844
1477.949219	17038.929688
1476.925781	16913.226563
1475.902344	16939.033203
1474.878906	17245.705078
1473.855469	17288.523438
1472.831055	17436.304688
1471.806641	17618.193359
1470.782227	17863.457031
1469.757813	17903.667969
1468.733398	18114.617188
1467.708008	17969.406250
1466.682617	18202.197266
1465.657227	18568.970703
1464.631836	18669.923828
1463.605469	18980.400391
1462.579102	19346.781250
1461.552734	19347.638672
1460.526367	19713.789063
1459.500000	19928.830078
1458.472656	20053.710938
1457.445313	20076.320313
1456.417969	20184.083984
1455.390625	20530.212891
1454.362305	20448.119141
1453.334961	20334.443359
1452.306641	20040.900391
1451.277344	19810.679688
1450.249023	19624.296875
1449.219727	19612.931641
1448.191406	19227.466797
1447.162109	19014.601563
1446.131836	18551.714844
1445.102539	18283.238281
1444.072266	18277.013672
1443.041992	17790.298828
1442.011719	17958.863281
1440.981445	17533.058594
1439.950195	17672.501953
1438.918945	17237.232422
1437.887695	17277.285156
1436.856445	17142.814453
1435.825195	17122.289063
1434.792969	17138.111328
1433.760742	16935.929688
1432.728516	16741.095703
1431.696289	16848.988281
1430.663086	16763.181641
1429.629883	16570.921875
1428.596680	16550.539063
1427.563477	16505.970703
1426.530273	16439.652344
1425.496094	16361.268555
1424.461914	16384.458984
1423.427734	16161.088867
1422.393555	16268.892578
1421.358398	16110.874023
1420.323242	16332.175781
1419.288086	16352.927734
1418.252930	16144.280273
1417.217773	16095.050781
1416.181641	16152.041016
1415.145508	15912.191406
1414.109375	16273.185547
1413.073242	16129.893555
1412.036133	16109.652344
1411.000000	16277.487305
1409.962891	16315.077148
1408.924805	16142.970703
1407.887695	16472.134766
1406.849609	16430.156250
1405.812500	16448.410156
1404.773438	16938.646484
1403.735352	16896.593750
1402.697266	17107.304688
1401.658203	17281.828125
1400.619141	17321.535156
1399.580078	17394.904297
1398.540039	17525.962891
1397.500977	17320.322266
1396.460938	17364.791016
1395.420898	17733.726563
1394.380859	17328.710938
1393.339844	17442.824219
1392.298828	17391.142578
1391.257813	17154.560547
1390.216797	16906.070313
1389.175781	17065.781250
1388.133789	17316.628906
1387.091797	17260.224609
1386.049805	17098.281250
1385.007813	17241.025391
1383.964844	17275.794922
1382.922852	17327.332031
1381.879883	17314.125000
1380.835938	17646.029297
1379.792969	17577.650391
1378.749023	17650.636719
1377.706055	17587.072266
1376.661133	17796.515625
1375.617188	17855.041016
1374.573242	17942.265625
1373.528320	18027.060547
1372.483398	17776.855469
1371.438477	17655.927734
1370.392578	18034.888672
1369.347656	18121.978516
1368.301758	18225.765625
1367.255859	18152.640625
1366.208984	18203.804688
1365.163086	18042.316406
1364.116211	18114.976563
1363.069336	18032.378906
1362.022461	18226.775391
1360.974609	18351.861328
1359.927734	18233.464844
1358.879883	18353.724609
1357.832031	18395.207031
1356.783203	18553.541016
1355.735352	18294.505859
1354.686523	18474.248047
1353.637695	18313.062500
1352.588867	18528.468750
1351.539063	18696.132813
1350.490234	19287.736328
1349.440430	19247.970703
1348.390625	19589.193359
1347.339844	19716.019531
1346.290039	19852.312500
1345.239258	20257.439453
1344.188477	20315.046875
1343.137695	20579.568359
1342.085938	21210.201172
1341.034180	21120.158203
1339.982422	21317.781250
1338.930664	21463.033203
1337.878906	21489.417969
1336.826172	21480.158203
1335.773438	21487.523438
1334.720703	21395.152344
1333.667969	21511.740234
1332.614258	21559.443359
1331.561523	21531.183594
1330.507813	21135.181641
1329.453125	20898.275391
1328.399414	20651.980469
1327.344727	20623.929688
1326.290039	20429.947266
1325.235352	19982.441406
1324.180664	20108.570313
1323.125000	19857.953125
1322.070313	19917.732422
1321.014648	19899.333984
1319.958008	19760.195313
1318.902344	20002.218750
1317.845703	19839.447266
1316.789063	19570.267578
1315.732422	19379.263672
1314.675781	19394.105469
1313.618164	18943.107422
1312.560547	18740.531250
1311.502930	18757.859375
1310.445313	18465.605469
1309.386719	18355.398438
1308.329102	17928.707031
1307.270508	17667.509766
1306.210938	17385.171875
1305.152344	17098.230469
1304.092773	16950.656250
1303.033203	16739.433594
1301.973633	16893.968750
1300.914063	16803.136719
1299.853516	16707.625000
1298.792969	16626.298828
1297.732422	16405.931641
1296.671875	16631.068359
1295.611328	16415.503906
1294.549805	16614.628906
1293.488281	16427.417969
1292.426758	16461.625000
1291.364258	16361.627930
1290.302734	16233.427734
1289.240234	16465.320313
1288.177734	16508.896484
1287.114258	16293.710938
1286.051758	16290.268555
1284.988281	16392.630859
1283.924805	16285.735352
1282.861328	16413.906250
1281.796875	16243.605469
1280.732422	16329.442383
1279.667969	16368.266602
1278.603516	16400.029297
1277.539063	16225.174805
1276.473633	16555.050781
1275.408203	16516.345703
1274.342773	16395.539063
1273.277344	16610.224609
1272.210938	16524.625000
1271.145508	16427.335938
1270.079102	16498.875000
1269.011719	16471.943359
1267.945313	16487.199219
1266.877930	16389.996094
1265.810547	16372.470703
1264.743164	16434.572266
1263.674805	16166.524414
1262.607422	16130.326172
1261.539063	15871.816406
1260.470703	15931.625000
1259.401367	15951.639648
1258.333008	15728.409180
1257.263672	15622.187500
1256.194336	15328.985352
1255.125000	15430.912109
1254.054688	15364.542969
1252.985352	15372.963867
1251.915039	15348.677734
1250.843750	15298.712891
1249.773438	14849.511719
1248.702148	15201.175781
1247.630859	15025.243164
1246.559570	14730.382813
1245.488281	14829.898438
1244.416016	14754.443359
1243.343750	14774.625977
1242.271484	14762.160156
1241.199219	14833.608398
1240.125977	14765.204102
1239.053711	14587.323242
1237.980469	14698.359375
1236.906250	14802.360352
1235.833008	14890.017578
1234.758789	14847.274414
1233.684570	14799.893555
1232.610352	14740.896484
1231.536133	14712.166992
1230.460938	14622.975586
1229.385742	14550.098633
1228.310547	14658.594727
1227.235352	14655.471680
1226.159180	14582.629883
1225.083008	14821.159180
1224.006836	14648.424805
1222.930664	14640.656250
1221.853516	14707.193359
1220.777344	14741.199219
1219.700195	14828.571289
1218.622070	14653.694336
1217.544922	14678.406250
1216.466797	14740.218750
1215.388672	14832.150391
1214.310547	14771.021484
1213.232422	14893.038086
1212.153320	14869.000000
1211.074219	15141.545898
1209.995117	15020.169922
1208.916016	15299.512695
1207.835938	15152.681641
1206.755859	14948.037109
1205.675781	15086.026367
1204.595703	14992.553711
1203.514648	14943.077148
1202.434570	15032.402344
1201.353516	14816.432617
1200.271484	14859.502930
1199.190430	14990.392578
1198.108398	14756.079102
1197.026367	14618.907227
1195.944336	14634.257813
1194.862305	14529.502930
1193.779297	14734.207031
1192.696289	14424.009766
1191.613281	14607.874023
1190.530273	14443.211914
1189.446289	14430.888672
1188.362305	14402.421875
1187.278320	14046.499023
1186.194336	14181.824219
1185.109375	14284.817383
1184.024414	13986.761719
1182.939453	14223.389648
1181.854492	14038.350586
1180.768555	14072.187500
1179.683594	14032.324219
1178.597656	13817.513672
1177.510742	13853.673828
1176.424805	14009.478516
1175.337891	13771.800781
1174.250977	13794.143555
1173.164063	13816.476563
1172.077148	14041.125977
1170.989258	13771.458984
1169.901367	13782.287109
1168.813477	13756.346680
1167.724609	13746.496094
1166.636719	13819.330078
1165.547852	13786.505859
1164.458984	13845.523438
1163.369141	13994.029297
1162.280273	14048.384766
1161.190430	13836.583984
1160.100586	13918.472656
1159.010742	14124.161133
1157.919922	13958.332031
1156.829102	13962.201172
1155.738281	13883.563477
1154.647461	14331.953125
1153.555664	14088.331055
1152.464844	13986.810547
1151.373047	13887.623047
1150.280273	13916.677734
1149.188477	13915.963867
1148.095703	14041.106445
1147.002930	13781.839844
1145.910156	13870.358398
1144.817383	13796.471680
1143.723633	13455.114258
1142.629883	13708.223633
1141.536133	13755.540039
1140.441406	13578.918945
1139.347656	13687.918945
1138.252930	13639.283203
1137.158203	13503.898438
1136.062500	13560.333984
1134.967773	13552.836914
1133.872070	13472.321289
1132.776367	13695.265625
1131.679688	13683.178711
1130.583984	13614.084961
1129.487305	13763.893555
1128.390625	13553.486328
1127.292969	13694.124023
1126.196289	13764.068359
1125.098633	13626.688477
1124.000977	13703.447266
1122.903320	13577.522461
1121.804688	13761.250000
1120.706055	13532.945313
1119.607422	13511.807617
1118.508789	13370.103516
1117.409180	13551.438477
1116.310547	13712.226563
1115.210938	13375.045898
1114.110352	13383.508789
1113.010742	13685.122070
1111.910156	13520.836914
1110.809570	13367.980469
1109.708984	13476.358398
1108.607422	13430.291016
1107.506836	13361.541992
1106.405273	13111.256836
1105.303711	13371.619141
1104.201172	13352.833008
1103.098633	13234.257813
1101.996094	13170.155273
1100.893555	13106.080078
1099.791016	13232.425781
1098.687500	13150.232422
1097.583984	13233.464844
1096.480469	13230.584961
1095.376953	13132.589844
1094.272461	13193.126953
1093.167969	13398.509766
1092.063477	13207.750000
1090.958008	13383.623047
1089.853516	13355.823242
1088.748047	13441.117188
1087.642578	13492.456055
1086.536133	13428.476563
1085.430664	13606.364258
1084.324219	13451.997070
1083.217773	13638.835938
1082.110352	13656.189453
1081.003906	13831.609375
1079.896484	14083.713867
1078.789063	13875.231445
1077.680664	14005.349609
1076.573242	14024.854492
1075.464844	14186.461914
1074.356445	13944.304688
1073.247070	13715.781250
1072.138672	14008.094727
1071.029297	13799.938477
1069.919922	13569.338867
1068.809570	13532.580078
1067.700195	13626.469727
1066.589844	13420.826172
1065.479492	13426.895508
1064.368164	13471.224609
1063.257813	13290.500000
1062.146484	13274.091797
1061.035156	13302.676758
1059.922852	13056.886719
1058.811523	13098.995117
1057.699219	12997.218750
1056.586914	13315.747070
1055.473633	13115.102539
1054.361328	13080.779297
1053.248047	12893.747070
1052.134766	12994.208984
1051.021484	12941.971680
1049.907227	12867.311523
1048.792969	12886.927734
1047.678711	12843.718750
1046.564453	12865.572266
1045.449219	12833.596680
1044.333984	12889.070313
1043.218750	12964.691406
1042.103516	12827.385742
1040.987305	12887.301758
1039.871094	12871.030273
1038.754883	13107.829102
1037.638672	12755.662109
1036.521484	12905.078125
1035.404297	12947.000977
1034.287109	12671.174805
1033.169922	12916.699219
1032.051758	12882.546875
1030.933594	12819.338867
1029.815430	12832.166016
1028.697266	12903.099609
1027.578125	12947.185547
1026.458984	12915.291016
1025.339844	12881.176758
1024.220703	12947.565430
1023.100586	12786.197266
1021.980469	12932.932617
1020.860352	12930.082031
1019.740234	12927.232422
1018.619141	12942.227539
1017.498047	12905.920898
1016.376953	12804.969727
1015.255859	12940.353516
1014.133789	12721.316406
1013.011719	12538.025391
1011.889648	12686.742188
1010.767578	12737.394531
1009.644531	12712.315430
1008.521484	12716.186523
1007.398438	12849.147461
1006.274414	12715.019531
1005.151367	12856.818359
1004.027344	12829.510742
1002.902344	12735.500977
1001.778320	12966.128906
1000.653320	12807.666992
999.528320	12842.613281
998.403320	12879.765625
997.278320	12912.457031
996.152344	12720.830078
995.026367	12762.420898
993.900391	12803.993164
992.773438	12816.693359
991.646484	12973.612305
990.519531	12786.615234
989.392578	13014.441406
988.265625	12825.297852
987.137695	12884.528320
986.009766	13003.574219
984.881836	12978.533203
983.752930	13188.334961
982.624023	12941.769531
981.495117	12828.176758
980.366211	12973.665039
979.236328	13010.628906
978.106445	12686.863281
976.976563	12834.494141
975.846680	12636.991211
974.715820	12713.798828
973.585938	12604.847656
972.454102	12641.836914
971.323242	12711.958984
970.191406	12638.429688
969.060547	12522.960938
967.927734	12460.546875
966.795898	12448.944336
965.663086	12527.855469
964.530273	12538.311523
963.397461	12853.268555
962.264648	12488.612305
961.130859	12492.450195
959.997070	12857.920898
958.863281	12661.053711
957.729492	12678.072266
956.594727	12756.783203
955.459961	12692.253906
954.325195	12561.672852
953.189453	12600.715820
952.053711	12615.520508
950.917969	12636.921875
949.782227	12372.224609
948.646484	12481.675781
947.509766	12311.714844
946.373047	12427.726563
945.235352	12499.709961
944.098633	12492.525391
942.960938	12423.805664
941.823242	12238.661133
940.685547	12580.819336
939.546875	12496.749023
938.408203	12665.228516
937.269531	12541.659180
936.129883	12628.844727
934.991211	12483.392578
933.851563	12544.223633
932.711914	12773.912109
931.571289	12562.738281
930.431641	12529.236328
929.291016	12763.154297
928.149414	12742.769531
927.008789	12702.673828
925.867188	12745.830078
924.725586	12661.951172
923.583984	12737.935547
922.441406	12498.682617
921.299805	12537.463867
920.157227	12606.858398
919.013672	12271.543945
917.871094	12207.559570
916.727539	12217.943359
915.583984	12247.995117
914.439453	12083.524414
913.295898	12275.280273
912.151367	12145.827148
911.006836	12206.440430
909.861328	12175.316406
908.716797	12002.308594
907.571289	12054.179688
906.424805	12075.477539
905.279297	12072.767578
904.132813	12211.827148
902.986328	12150.209961
901.839844	12219.424805
900.692383	12131.675781
899.545898	12120.234375
898.398438	12078.296875
897.250000	11953.607422
896.102539	12157.796875
894.954102	12135.469727
893.805664	12052.205078
892.656250	12153.952148
891.507813	12140.339844
890.358398	12085.405273
889.208984	12065.288086
888.058594	12014.741211
886.908203	12085.944336
885.758789	12035.413086
884.607422	11874.092773
883.457031	11993.066406
882.305664	11886.120117
881.154297	11837.846680
880.002930	11941.548828
878.850586	12025.670898
877.698242	12090.225586
876.545898	11929.139648
875.393555	11965.490234
874.240234	11873.890625
873.086914	11890.723633
871.933594	11773.171875
870.780273	11924.365234
869.625977	11770.027344
868.471680	11726.219727
867.317383	11623.963867
866.162109	11502.269531
865.007813	11783.214844
863.852539	11635.570313
862.696289	11857.943359
861.541016	11998.021484
860.384766	11854.750000
859.228516	11763.429688
858.072266	11912.077148
856.915039	11708.411133
855.757813	11755.457031
854.600586	11603.755859
853.442383	11732.866211
852.285156	11805.780273
851.126953	11703.815430
849.968750	11707.642578
848.809570	11815.031250
847.650391	11909.428711
846.491211	11770.866211
845.332031	11600.022461
844.171875	11621.109375
843.012695	11741.322266
841.851563	11783.912109
840.691406	11692.920898
839.530273	11787.189453
838.369141	11797.438477
837.208008	11728.030273
836.046875	11807.158203
834.884766	11752.839844
833.722656	11692.091797
832.560547	11796.979492
831.397461	11695.391602
830.234375	11617.496094
829.071289	11670.743164
827.908203	11680.988281
826.744141	11714.860352
825.580078	11555.409180
824.416016	11537.754883
823.251953	11548.017578
822.086914	11721.398438
820.921875	11607.150391
819.756836	11480.081055
818.590820	11462.458984
817.425781	11571.366211
816.259766	11579.457031
815.092773	11546.817383
813.926758	11531.335938
812.759766	11511.574219
811.592773	11451.124023
810.424805	11457.085938
809.257813	11469.467773
808.089844	11456.157227
806.920898	11447.130859
805.752930	11523.691406
804.583984	11446.201172
803.415039	11422.210938
802.246094	11637.698242
801.076172	11406.324219
799.906250	11422.960938
798.736328	11565.652344
797.566406	11317.360352
796.395508	11387.395508
795.224609	11468.074219
794.053711	11567.926758
792.881836	11588.767578
791.710938	11592.528320
790.538086	11664.549805
789.366211	11704.545898
788.194336	11721.067383
787.021484	11746.108398
785.848633	11852.125977
784.674805	11687.481445
783.500977	11650.730469
782.327148	11780.122070
781.153320	11562.370117
779.979492	11779.004883
778.804688	11629.458984
777.629883	11603.397461
776.454102	11687.971680
775.279297	11781.014648
774.103516	11523.152344
772.927734	11618.314453
771.750977	11609.285156
770.575195	11534.383789
769.398438	11595.483398
768.220703	11363.440430
767.043945	11711.225586
765.866211	11717.041016
764.688477	11761.058594
763.510742	11832.641602
762.332031	11916.921875
761.153320	12164.485352
759.974609	12560.378906
758.794922	12655.031250
757.616211	12993.398438
756.436523	13274.392578
755.255859	14012.889648
754.076172	14636.666016
752.895508	15243.213867
751.714844	16361.849609
750.533203	17321.216797
749.352539	18582.767578
748.170898	19439.626953
746.988281	20224.173828
745.806641	20667.876953
744.624023	20741.373047
743.441406	20626.701172
742.258789	20273.273438
741.075195	20165.097656
739.891602	19801.373047
738.708008	19813.730469
737.523438	19610.716797
736.339844	19644.216797
735.155273	19565.847656
733.969727	19386.234375
732.785156	18717.304688
731.599609	18057.117188
730.414063	17641.818359
729.227539	16566.898438
728.041992	15768.557617
726.855469	14808.337891
725.667969	14183.502930
724.481445	13586.332031
723.293945	13193.677734
722.106445	12628.583008
720.918945	12436.266602
719.730469	12191.433594
718.541992	12131.833984
717.353516	11855.633789
716.164063	11600.586914
714.975586	11606.330078
713.786133	11431.321289
712.595703	11491.732422
711.406250	11367.247070
710.215820	11362.533203
709.025391	11383.019531
707.833984	11342.615234
706.642578	11136.419922
705.451172	11272.350586
704.259766	11303.324219
703.068359	11244.094727
701.875977	11281.349609
700.683594	11473.721680
699.490234	11443.834961
698.297852	11818.383789
697.104492	11824.043945
695.910156	11995.166016
694.716797	12143.173828
693.522461	12278.551758
692.328125	12426.423828
691.132813	12515.635742
689.938477	12437.439453
688.743164	12225.415039
687.547852	12088.767578
686.351563	12014.901367
685.155273	11798.937500
683.958984	11796.219727
682.762695	11526.084961
681.565430	11487.920898
680.368164	11485.273438
679.170898	11493.065430
677.973633	11705.405273
676.775391	11435.598633
675.577148	11579.003906
674.378906	11440.754883
673.179688	11600.774414
671.980469	11456.328125
670.781250	11374.479492
669.581055	11298.919922
668.381836	11210.893555
667.181641	11379.108398
665.980469	11314.009766
664.780273	11169.824219
663.579102	11337.929688
662.377930	11297.855469
661.175781	11037.260742
659.973633	11409.124023
658.771484	11435.604492
657.569336	11148.128906
656.367188	11224.541992
655.164063	11381.967773
653.960938	11582.950195
652.756836	11457.721680
651.552734	11479.996094
650.348633	11724.415039
649.144531	11599.238281
647.939453	11635.988281
646.735352	11774.385742
645.529297	11825.597656
644.324219	11918.260742
643.118164	11851.233398
641.912109	11815.328125
640.706055	11829.176758
639.499023	11683.481445
638.292969	11475.709961
637.084961	11357.083984
635.877930	11561.504883
634.669922	11451.192383
633.461914	11365.764648
632.253906	11458.311523
631.044922	11118.487305
629.836914	11122.120117
628.626953	11160.900391
627.417969	11406.373047
626.208008	11083.405273
624.998047	11161.421875
623.788086	11148.510742
622.577148	11026.149414
621.366211	11180.517578
620.155273	11033.432617
618.944336	11024.688477
617.732422	10993.250977
616.520508	11050.528320
615.308594	10934.541992
614.095703	10855.721680
612.882813	10935.664063
611.669922	10910.462891
610.457031	10794.612305
609.243164	10893.050781
608.029297	10731.949219
606.815430	10855.063477
605.600586	11064.577148
604.385742	10887.081055
603.170898	10794.026367
601.955078	10956.093750
600.740234	10858.951172
599.524414	10983.916992
598.307617	10921.757813
597.091797	10911.006836
595.875000	10813.961914
594.658203	10963.470703
593.440430	10872.618164
592.222656	10933.750977
591.004883	11011.276367
589.787109	10774.758789
588.568359	10811.247070
587.349609	10700.017578
586.130859	10785.726563
584.912109	10617.141602
583.692383	10774.577148
582.472656	10825.366211
581.251953	10685.573242
580.032227	11002.666992
578.811523	10735.916016
577.589844	10768.236328
576.369141	10888.565430
575.147461	10929.020508
573.925781	11045.163086
572.703125	10989.414063
571.481445	11095.261719
570.258789	11350.324219
569.035156	11319.072266
567.812500	11494.256836
566.588867	11465.027344
565.365234	11703.422852
564.140625	11864.097656
562.916992	11675.533203
561.692383	11644.245117
560.466797	11423.162109
559.242188	11579.668945
558.016602	11491.302734
556.791016	11537.584961
555.564453	11324.885742
554.337891	11324.295898
553.111328	11248.296875
551.884766	11096.939453
550.657227	11041.398438
549.429688	10981.808594
548.202148	10895.775391
546.974609	10738.530273
545.746094	11088.139648
544.517578	10800.695313
543.288086	10952.796875
542.058594	11031.608398
540.829102	11027.014648
539.599609	10945.171875
538.370117	10952.792969
537.139648	10940.090820
535.909180	10915.205078
534.677734	10811.120117
533.446289	10763.938477
532.214844	10919.786133
530.983398	10819.830078
529.750977	10813.259766
528.519531	10820.892578
527.286133	10911.676758
526.053711	10834.118164
524.820313	10815.384766
523.586914	10934.480469
522.353516	10769.836914
521.119141	11036.773438
519.884766	11032.185547
518.650391	10764.361328
517.415039	10907.621094
516.179688	10761.387695
514.944336	10868.157227
513.708984	10815.058594
