#Wave		#Intensity
1585.210938	12460.754883
1584.209961	12230.971680
1583.208984	12340.808594
1582.208008	12483.054688
1581.206055	12505.429688
1580.204102	12465.405273
1579.202148	12397.951172
1578.200195	12495.165039
1577.198242	12357.899414
1576.195313	12499.962891
1575.192383	12223.144531
1574.189453	12447.427734
1573.186523	12173.226563
1572.182617	12290.293945
1571.178711	12359.985352
1570.174805	12051.105469
1569.170898	11993.831055
1568.166992	12153.157227
1567.162109	12083.441406
1566.158203	11976.427734
1565.153320	11934.142578
1564.147461	12093.346680
1563.142578	11978.936523
1562.136719	11976.456055
1561.130859	12060.977539
1560.125000	12008.775391
1559.119141	11996.349609
1558.113281	12132.982422
1557.106445	12088.247070
1556.099609	12329.097656
1555.092773	12393.578125
1554.084961	12180.027344
1553.078125	12301.587891
1552.070313	12264.304688
1551.062500	12556.960938
1550.054688	12346.031250
1549.045898	12851.793945
1548.038086	13010.274414
1547.029297	13059.630859
1546.020508	13198.176758
1545.011719	13386.215820
1544.001953	13534.542969
1542.992188	13719.957031
1541.982422	14061.282227
1540.972656	14036.091797
1539.962891	14060.410156
1538.952148	14161.427734
1537.942383	14386.100586
1536.931641	14440.010742
1535.919922	14484.007813
1534.909180	14345.025391
1533.897461	14220.930664
1532.886719	14005.446289
1531.874023	13879.001953
1530.862305	13745.198242
1529.850586	13675.665039
1528.837891	13433.306641
1527.825195	13270.049805
1526.812500	13173.505859
1525.799805	13123.888672
1524.786133	12593.166992
1523.772461	12701.565430
1522.758789	12531.227539
1521.745117	12299.314453
1520.731445	12437.288086
1519.716797	12533.303711
1518.702148	12308.925781
1517.687500	12128.987305
1516.672852	12106.769531
1515.657227	11998.365234
1514.642578	12279.035156
1513.626953	12315.878906
1512.610352	12148.428711
1511.594727	12187.744141
1510.579102	12249.184570
1509.562500	12079.390625
1508.545898	11917.043945
1507.529297	12275.996094
1506.511719	11953.895508
1505.494141	12155.402344
1504.477539	12020.200195
1503.458984	12032.450195
1502.441406	11939.082031
1501.423828	12022.553711
1500.405273	11916.950195
1499.386719	12150.120117
1498.368164	12032.261719
1497.348633	12154.900391
1496.330078	12071.431641
1495.310547	11985.543945
1494.291016	12037.004883
1493.271484	12100.701172
1492.250977	12088.389648
1491.231445	11990.315430
1490.210938	12012.330078
1489.190430	11960.850586
1488.168945	12217.963867
1487.148438	12102.801758
1486.126953	12227.587891
1485.105469	12053.730469
1484.083984	12327.737305
1483.061523	12386.343750
1482.040039	12283.492188
1481.017578	12395.880859
1479.995117	12454.433594
1478.971680	12376.074219
1477.949219	12544.582031
1476.925781	12568.858398
1475.902344	12661.525391
1474.878906	12783.460938
1473.855469	12766.159180
1472.831055	13034.503906
1471.806641	13251.478516
1470.782227	13304.858398
1469.757813	13463.128906
1468.733398	13535.956055
1467.708008	13850.198242
1466.682617	13893.653320
1465.657227	14124.802734
1464.631836	14353.417969
1463.605469	14399.175781
1462.579102	14881.014648
1461.552734	15304.193359
1460.526367	15583.512695
1459.500000	15689.844727
1458.472656	15932.451172
1457.445313	16230.934570
1456.417969	16412.494141
1455.390625	16435.847656
1454.362305	16269.473633
1453.334961	16183.415039
1452.306641	16024.454102
1451.277344	16018.696289
1450.249023	16093.137695
1449.219727	15739.912109
1448.191406	15437.845703
1447.162109	15065.470703
1446.131836	14821.946289
1445.102539	14554.245117
1444.072266	14335.198242
1443.041992	14084.694336
1442.011719	13911.932617
1440.981445	13998.793945
1439.950195	13721.835938
1438.918945	13474.088867
1437.887695	13451.894531
1436.856445	13512.115234
1435.825195	13376.031250
1434.792969	13341.754883
1433.760742	13150.050781
1432.728516	13166.690430
1431.696289	13030.788086
1430.663086	12933.671875
1429.629883	12742.208984
1428.596680	12509.690430
1427.563477	12853.029297
1426.530273	12748.771484
1425.496094	12668.738281
1424.461914	12378.402344
1423.427734	12460.426758
1422.393555	12315.251953
1421.358398	12312.689453
1420.323242	12027.496094
1419.288086	12201.298828
1418.252930	12206.002930
1417.217773	12234.845703
1416.181641	12302.293945
1415.145508	12374.540039
1414.109375	12456.405273
1413.073242	12323.556641
1412.036133	12330.636719
1411.000000	12070.079102
1409.962891	12354.428711
1408.924805	12412.108398
1407.887695	12351.691406
1406.849609	12491.255859
1405.812500	12806.589844
1404.773438	12873.755859
1403.735352	13232.214844
1402.697266	13323.333984
1401.658203	13433.666992
1400.619141	13397.181641
1399.580078	13762.445313
1398.540039	13718.689453
1397.500977	13581.170898
1396.460938	13518.236328
1395.420898	13570.700195
1394.380859	13490.969727
1393.339844	13353.610352
1392.298828	13482.940430
1391.257813	13597.804688
1390.216797	13417.287109
1389.175781	13311.261719
1388.133789	13308.483398
1387.091797	13209.721680
1386.049805	13329.318359
1385.007813	13583.183594
1383.964844	13203.848633
1382.922852	13692.595703
1381.879883	13509.955078
1380.835938	13665.307617
1379.792969	13775.069336
1378.749023	14102.782227
1377.706055	13968.106445
1376.661133	13802.356445
1375.617188	14098.731445
1374.573242	13913.873047
1373.528320	14028.225586
1372.483398	14022.901367
1371.438477	14153.925781
1370.392578	14150.966797
1369.347656	14195.829102
1368.301758	14188.079102
1367.255859	14278.324219
1366.208984	14246.663086
1365.163086	14434.808594
1364.116211	14350.577148
1363.069336	14182.796875
1362.022461	14263.394531
1360.974609	14341.569336
1359.927734	14295.609375
1358.879883	14464.414063
1357.832031	14303.937500
1356.783203	14444.046875
1355.735352	14328.947266
1354.686523	14702.630859
1353.637695	14280.041016
1352.588867	14834.690430
1351.539063	14879.234375
1350.490234	15021.423828
1349.440430	15344.552734
1348.390625	15529.442383
1347.339844	15818.999023
1346.290039	16082.252930
1345.239258	16040.807617
1344.188477	16363.378906
1343.137695	16759.550781
1342.085938	16639.509766
1341.034180	16850.001953
1339.982422	17207.785156
1338.930664	17584.429688
1337.878906	17666.279297
1336.826172	17619.810547
1335.773438	17979.501953
1334.720703	17959.105469
1333.667969	17774.904297
1332.614258	17899.345703
1331.561523	17715.230469
1330.507813	17507.464844
1329.453125	17451.601563
1328.399414	17286.666016
1327.344727	17221.384766
1326.290039	17032.857422
1325.235352	16832.558594
1324.180664	16850.345703
1323.125000	16721.240234
1322.070313	16793.521484
1321.014648	16581.593750
1319.958008	16660.974609
1318.902344	16510.707031
1317.845703	16606.632813
1316.789063	16494.296875
1315.732422	16192.755859
1314.675781	15990.676758
1313.618164	15876.172852
1312.560547	15359.812500
1311.502930	15481.852539
1310.445313	15280.087891
1309.386719	15298.133789
1308.329102	14893.346680
1307.270508	14415.517578
1306.210938	14138.585938
1305.152344	13946.754883
1304.092773	14021.700195
1303.033203	13964.472656
1301.973633	13543.957031
1300.914063	13670.828125
1299.853516	13696.244141
1298.792969	13584.902344
1297.732422	13525.464844
1296.671875	13286.944336
1295.611328	13310.058594
1294.549805	13314.317383
1293.488281	13214.944336
1292.426758	13085.001953
1291.364258	12950.405273
1290.302734	12808.802734
1289.240234	12940.230469
1288.177734	12725.753906
1287.114258	12755.997070
1286.051758	12863.833008
1284.988281	12889.329102
1283.924805	12903.060547
1282.861328	12803.974609
1281.796875	12869.410156
1280.732422	12840.847656
1279.667969	12765.322266
1278.603516	12903.515625
1277.539063	12748.184570
1276.473633	12646.903320
1275.408203	12944.610352
1274.342773	12730.709961
1273.277344	12805.424805
1272.210938	12697.177734
1271.145508	12649.939453
1270.079102	12614.441406
1269.011719	12710.208984
1267.945313	12810.620117
1266.877930	12704.825195
1265.810547	12713.844727
1264.743164	12481.656250
1263.674805	12687.384766
1262.607422	12389.757813
1261.539063	12204.588867
1260.470703	12342.388672
1259.401367	12271.931641
1258.333008	12086.902344
1257.263672	12243.342773
1256.194336	12112.166016
1255.125000	11985.718750
1254.054688	11994.859375
1252.985352	11824.098633
1251.915039	11791.222656
1250.843750	11688.300781
1249.773438	11580.750977
1248.702148	11592.296875
1247.630859	11727.531250
1246.559570	11690.040039
1245.488281	11582.577148
1244.416016	11608.104492
1243.343750	11519.358398
1242.271484	11654.458984
1241.199219	11395.585938
1240.125977	11460.743164
1239.053711	11271.916016
1237.980469	11427.916016
1236.906250	11444.115234
1235.833008	11600.010742
1234.758789	11434.588867
1233.684570	11313.458008
1232.610352	11336.645508
1231.536133	11329.579102
1230.460938	11555.104492
1229.385742	11364.285156
1228.310547	11343.264648
1227.235352	11559.342773
1226.159180	11505.752930
1225.083008	11254.694336
1224.006836	11544.984375
1222.930664	11249.895508
1221.853516	11437.895508
1220.777344	11570.100586
1219.700195	11430.696289
1218.622070	11678.866211
1217.544922	11393.338867
1216.466797	11757.382813
1215.388672	11643.562500
1214.310547	11705.994141
1213.232422	11939.928711
1212.153320	12060.205078
1211.074219	11916.292969
1209.995117	11941.544922
1208.916016	11908.884766
1207.835938	12154.099609
1206.755859	12167.706055
1205.675781	12114.185547
1204.595703	12023.662109
1203.514648	11967.879883
1202.434570	11893.616211
1201.353516	11935.009766
1200.271484	11930.144531
1199.190430	12161.057617
1198.108398	12035.968750
1197.026367	12091.156250
1195.944336	11933.792969
1194.862305	11547.848633
1193.779297	11670.065430
1192.696289	11674.490234
1191.613281	11676.605469
1190.530273	11427.190430
1189.446289	11500.875977
1188.362305	11512.250000
1187.278320	11311.456055
1186.194336	11272.140625
1185.109375	11260.502930
1184.024414	11493.158203
1182.939453	11117.423828
1181.854492	11386.866211
1180.768555	11133.379883
1179.683594	11071.121094
1178.597656	11059.536133
1177.510742	11146.925781
1176.424805	11020.268555
1175.337891	11084.620117
1174.250977	10912.025391
1173.164063	10932.677734
1172.077148	10856.753906
1170.989258	10976.250977
1169.901367	10888.857422
1168.813477	10884.217773
1167.724609	10999.034180
1166.636719	10776.183594
1165.547852	10785.345703
1164.458984	10925.360352
1163.369141	11007.932617
1162.280273	11053.751953
1161.190430	11030.723633
1160.100586	10984.766602
1159.010742	11133.755859
1157.919922	11223.067383
1156.829102	11158.757813
1155.738281	11183.854492
1154.647461	11188.317383
1153.555664	11275.246094
1152.464844	11247.622070
1151.373047	11318.469727
1150.280273	11114.569336
1149.188477	11263.233398
1148.095703	11105.197266
1147.002930	11125.678711
1145.910156	11143.863281
1144.817383	11116.301758
1143.723633	10967.576172
1142.629883	10898.917969
1141.536133	10910.275391
1140.441406	10898.779297
1139.347656	10827.892578
1138.252930	10709.075195
1137.158203	10731.876953
1136.062500	10887.076172
1134.967773	10880.157227
1133.872070	10775.118164
1132.776367	10984.958008
1131.679688	10768.175781
1130.583984	10964.241211
1129.487305	10872.951172
1128.390625	10793.096680
1127.292969	11102.974609
1126.196289	10945.635742
1125.098633	10897.706055
1124.000977	10970.500977
1122.903320	11029.602539
1121.804688	11018.105469
1120.706055	10708.460938
1119.607422	10885.902344
1118.508789	11022.316406
1117.409180	10860.710938
1116.310547	10883.369141
1115.210938	10694.580078
1114.110352	10744.539063
1113.010742	10778.567383
1111.910156	10694.434570
1110.809570	10635.324219
1109.708984	10662.538086
1108.607422	10748.774414
1107.506836	10637.476563
1106.405273	10510.338867
1105.303711	10592.010742
1104.201172	10564.753906
1103.098633	10517.095703
1101.996094	10508.005859
1100.893555	10553.330078
1099.791016	10575.966797
1098.687500	10367.450195
1097.583984	10754.880859
1096.480469	10560.004883
1095.376953	10471.649414
1094.272461	10446.728516
1093.167969	10657.236328
1092.063477	10716.020508
1090.958008	10596.028320
1089.853516	10638.962891
1088.748047	10826.625000
1087.642578	10702.161133
1086.536133	10828.687500
1085.430664	10821.805664
1084.324219	10894.015625
1083.217773	11015.896484
1082.110352	11088.030273
1081.003906	11227.878906
1079.896484	11141.892578
1078.789063	11234.264648
1077.680664	11373.987305
1076.573242	11418.884766
1075.464844	11477.295898
1074.356445	11445.470703
1073.247070	11346.014648
1072.138672	11424.689453
1071.029297	11298.234375
1069.919922	11194.366211
1068.809570	11306.811523
1067.700195	11207.490234
1066.589844	11184.772461
1065.479492	11022.481445
1064.368164	11002.062500
1063.257813	10963.649414
1062.146484	10776.762695
1061.035156	10655.187500
1059.922852	10679.840820
1058.811523	10792.168945
1057.699219	10657.179688
1056.586914	10737.998047
1055.473633	10679.472656
1054.361328	10526.624023
1053.248047	10580.463867
1052.134766	10506.291016
1051.021484	10326.638672
1049.907227	10575.749023
1048.792969	10519.575195
1047.678711	10461.180664
1046.564453	10382.624023
1045.449219	10514.893555
1044.333984	10597.779297
1043.218750	10528.208008
1042.103516	10442.979492
1040.987305	10375.711914
1039.871094	10375.671875
1038.754883	10684.683594
1037.638672	10617.404297
1036.521484	10536.721680
1035.404297	10449.360352
1034.287109	10395.598633
1033.169922	10442.527344
1032.051758	10455.886719
1030.933594	10321.658203
1029.815430	10509.410156
1028.697266	10625.555664
1027.578125	10634.389648
1026.458984	10770.562500
1025.339844	10560.464844
1024.220703	10479.980469
1023.100586	10484.369141
1021.980469	10718.664063
1020.860352	10573.477539
1019.740234	10495.288086
1018.619141	10397.056641
1017.498047	10597.708008
1016.376953	10535.169922
1015.255859	10626.471680
1014.133789	10579.552734
1013.011719	10392.278320
1011.889648	10537.012695
1010.767578	10643.820313
1009.644531	10576.895508
1008.521484	10601.274414
1007.398438	10512.128906
1006.274414	10532.059570
1005.151367	10729.959961
1004.027344	10534.078125
1002.902344	10476.155273
1001.778320	10769.535156
1000.653320	10931.639648
999.528320	10802.551758
998.403320	10751.282227
997.278320	10582.305664
996.152344	10613.276367
995.026367	10559.860352
993.900391	10368.836914
992.773438	10541.869141
991.646484	10415.279297
990.519531	10570.475586
989.392578	10639.106445
988.265625	10621.227539
987.137695	10603.355469
986.009766	10603.221680
984.881836	10900.017578
983.752930	10651.690430
982.624023	10751.214844
981.495117	10768.759766
980.366211	10881.495117
979.236328	10708.645508
978.106445	10653.158203
976.976563	10635.306641
975.846680	10604.190430
974.715820	10486.838867
973.585938	10522.096680
972.454102	10623.652344
971.323242	10621.292969
970.191406	10369.256836
969.060547	10550.301758
967.927734	10505.994141
966.795898	10530.155273
965.663086	10450.549805
964.530273	10673.345703
963.397461	10851.910156
962.264648	10514.171875
961.130859	10630.933594
959.997070	10827.026367
958.863281	10740.841797
957.729492	10912.575195
956.594727	10815.389648
955.459961	10579.448242
954.325195	10658.589844
953.189453	10827.983398
952.053711	10867.401367
950.917969	10565.620117
949.782227	10576.468750
948.646484	10565.310547
947.509766	10424.373047
946.373047	10578.192383
945.235352	10415.326172
944.098633	10441.579102
942.960938	10434.853516
941.823242	10524.808594
940.685547	10401.637695
939.546875	10463.007813
938.408203	10276.225586
937.269531	10541.754883
936.129883	10543.790039
934.991211	10486.577148
933.851563	10811.111328
932.711914	10582.783203
931.571289	10812.857422
930.431641	10988.019531
929.291016	10753.226563
928.149414	10831.901367
927.008789	10746.225586
925.867188	10724.107422
924.725586	10605.643555
923.583984	10758.717773
922.441406	10776.008789
921.299805	10613.841797
920.157227	10618.029297
919.013672	10515.028320
917.871094	10442.690430
916.727539	10488.453125
915.583984	10403.036133
914.439453	10304.542969
913.295898	10096.843750
912.151367	10153.561523
911.006836	10312.902344
909.861328	10057.300781
908.716797	10210.040039
907.571289	10159.733398
906.424805	10190.184570
905.279297	10231.528320
904.132813	10104.911133
902.986328	10340.326172
901.839844	10239.899414
900.692383	10309.527344
899.545898	10167.748047
898.398438	10113.176758
897.250000	10213.277344
896.102539	10152.185547
894.954102	10315.367188
893.805664	10319.578125
892.656250	10460.885742
891.507813	10267.072266
890.358398	10325.668945
889.208984	10362.491211
888.058594	10434.083008
886.908203	10173.060547
885.758789	10381.576172
884.607422	10301.019531
883.457031	10035.856445
882.305664	10322.443359
881.154297	10185.498047
880.002930	10185.375000
878.850586	10313.298828
877.698242	10163.426758
876.545898	10174.152344
875.393555	10165.352539
874.240234	10132.704102
873.086914	10132.587891
871.933594	10184.487305
870.780273	10136.685547
869.625977	10095.403320
868.471680	10145.107422
867.317383	10073.525391
866.162109	10203.312500
865.007813	10164.213867
863.852539	10045.065430
862.696289	10107.701172
861.541016	10220.055664
860.384766	10105.298828
859.228516	10033.832031
858.072266	10202.323242
856.915039	10074.678711
855.757813	10100.489258
854.600586	10169.487305
853.442383	10052.731445
852.285156	10173.525391
851.126953	10216.554688
849.968750	10168.923828
848.809570	10140.732422
847.650391	10043.524414
846.491211	10049.877930
845.332031	10028.198242
844.171875	10250.116211
843.012695	10137.881836
841.851563	10219.618164
840.691406	10219.458008
839.530273	10214.989258
838.369141	10012.426758
837.208008	10124.252930
836.046875	10085.370117
834.884766	10298.258789
833.722656	10138.882813
832.560547	10132.282227
831.397461	10196.643555
830.234375	10076.092773
829.071289	10078.105469
827.908203	10019.950195
826.744141	10253.993164
825.580078	10036.881836
824.416016	10056.078125
823.251953	10000.123047
822.086914	9916.291016
820.921875	9982.708008
819.756836	10010.476563
818.590820	9982.463867
817.425781	10008.074219
816.259766	9990.791992
815.092773	10057.113281
813.926758	10140.545898
812.759766	10065.396484
811.592773	10013.842773
810.424805	9820.971680
809.257813	9897.956055
808.089844	9775.834961
806.920898	9854.933594
805.752930	9816.319336
804.583984	9728.522461
803.415039	9717.753906
802.246094	9869.486328
801.076172	9873.652344
799.906250	9679.063477
798.736328	9809.331055
797.566406	9642.613281
796.395508	9834.763672
795.224609	9811.170898
794.053711	9988.250977
792.881836	9610.353516
791.710938	10043.443359
790.538086	10032.622070
789.366211	10111.379883
788.194336	10040.841797
787.021484	10290.102539
785.848633	10274.968750
784.674805	10198.046875
783.500977	10302.236328
782.327148	10280.717773
781.153320	10161.257813
779.979492	10188.743164
778.804688	10152.364258
777.629883	10001.094727
776.454102	10009.448242
775.279297	9953.990234
774.103516	9998.499023
772.927734	9824.013672
771.750977	10068.323242
770.575195	9978.899414
769.398438	9902.261719
768.220703	9925.487305
767.043945	10116.459961
765.866211	10118.393555
764.688477	10186.125000
763.510742	10245.335938
762.332031	10423.328125
761.153320	10412.459961
759.974609	10558.521484
758.794922	10810.521484
757.616211	11015.773438
756.436523	11360.794922
755.255859	11786.166992
754.076172	12329.961914
752.895508	13017.509766
751.714844	13732.266602
750.533203	14533.481445
749.352539	15543.835938
748.170898	16356.960938
746.988281	17404.507813
745.806641	17988.433594
744.624023	18263.402344
743.441406	18525.560547
742.258789	18428.328125
741.075195	18136.755859
739.891602	18031.207031
738.708008	18008.066406
737.523438	18208.744141
736.339844	18398.773438
735.155273	18578.162109
733.969727	18915.714844
732.785156	18881.843750
731.599609	18624.433594
730.414063	18291.236328
729.227539	17304.703125
728.041992	16316.515625
726.855469	15273.996094
725.667969	14055.001953
724.481445	13240.934570
723.293945	12543.047852
722.106445	12133.880859
720.918945	11724.900391
719.730469	11290.858398
718.541992	10945.367188
717.353516	10713.606445
716.164063	10475.643555
714.975586	10330.286133
713.786133	10323.708984
712.595703	10071.288086
711.406250	9911.416016
710.215820	9913.337891
709.025391	9894.260742
707.833984	9996.952148
706.642578	9942.182617
705.451172	9860.159180
704.259766	10059.287109
703.068359	9918.545898
701.875977	9746.415039
700.683594	9907.693359
699.490234	9968.292969
698.297852	10127.349609
697.104492	10391.081055
695.910156	10459.902344
694.716797	10641.767578
693.522461	10936.598633
692.328125	11109.897461
691.132813	10914.823242
689.938477	10818.166016
688.743164	10813.583008
687.547852	10758.815430
686.351563	10714.524414
685.155273	10693.245117
683.958984	10513.159180
682.762695	10519.093750
681.565430	10462.363281
680.368164	10305.422852
679.170898	10073.395508
677.973633	10256.840820
676.775391	10369.250000
675.577148	10179.091797
674.378906	10183.001953
673.179688	10257.812500
671.980469	10082.403320
670.781250	10107.174805
669.581055	10150.689453
668.381836	10023.342773
667.181641	9831.483398
665.980469	10108.264648
664.780273	10026.817383
663.579102	9982.874023
662.377930	10286.479492
661.175781	10128.065430
659.973633	10186.049805
658.771484	10194.096680
657.569336	10316.489258
656.367188	10239.277344
655.164063	10236.913086
653.960938	10367.519531
652.756836	10500.141602
651.552734	10410.496094
650.348633	10576.265625
649.144531	10667.230469
647.939453	10805.883789
646.735352	10822.060547
645.529297	10788.446289
644.324219	11038.959961
643.118164	10741.994141
641.912109	10950.944336
640.706055	10964.992188
639.499023	10771.842773
638.292969	10676.138672
637.084961	10820.708008
635.877930	10729.175781
634.669922	10403.777344
633.461914	10355.841797
632.253906	10394.828125
631.044922	10224.871094
629.836914	10199.757813
628.626953	10337.996094
627.417969	10254.986328
626.208008	10180.282227
624.998047	10289.500000
623.788086	10070.222656
622.577148	10191.804688
621.366211	10236.935547
620.155273	10269.659180
618.944336	10073.288086
617.732422	10145.235352
616.520508	9847.904297
615.308594	10047.734375
614.095703	9857.778320
612.882813	9849.312500
611.669922	9764.595703
610.457031	9681.978516
609.243164	9844.533203
608.029297	9698.089844
606.815430	9673.195313
605.600586	9638.018555
604.385742	9415.575195
603.170898	9477.179688
601.955078	9625.152344
600.740234	9573.564453
599.524414	9460.314453
598.307617	9427.288086
597.091797	9589.519531
595.875000	9548.257813
594.658203	9533.720703
593.440430	9437.038086
592.222656	9465.651367
591.004883	9297.179688
589.787109	9321.705078
588.568359	9360.582031
587.349609	9495.855469
586.130859	9284.461914
584.912109	9177.737305
583.692383	9339.607422
582.472656	9335.392578
581.251953	9380.355469
580.032227	9345.404297
578.811523	9314.564453
577.589844	9377.927734
576.369141	9388.036133
575.147461	9584.381836
573.925781	9531.005859
572.703125	9657.673828
571.481445	9581.806641
570.258789	9955.815430
569.035156	9937.152344
567.812500	9985.942383
566.588867	10124.614258
565.365234	10152.908203
564.140625	10238.375000
562.916992	10280.921875
561.692383	10207.086914
560.466797	10298.602539
559.242188	10212.553711
558.016602	10136.744141
556.791016	10093.602539
555.564453	9981.151367
554.337891	9634.315430
553.111328	9756.404297
551.884766	9472.947266
550.657227	9755.951172
549.429688	9433.927734
548.202148	9262.732422
546.974609	9413.263672
545.746094	9309.315430
544.517578	9414.999023
543.288086	9366.024414
542.058594	9276.395508
540.829102	9290.508789
539.599609	9335.109375
538.370117	9452.856445
537.139648	9365.319336
535.909180	9399.711914
534.677734	9393.468750
533.446289	9204.477539
532.214844	9238.881836
530.983398	9352.424805
529.750977	9112.844727
528.519531	9228.391602
527.286133	9264.784180
526.053711	9252.495117
524.820313	9331.436523
523.586914	9219.824219
522.353516	9258.209961
521.119141	9241.878906
519.884766	9383.535156
518.650391	9393.504883
517.415039	9320.469727
516.179688	9188.771484
514.944336	9172.473633
513.708984	9115.722656
