#Wave		#Intensity
1585.210938	26060.437500
1584.209961	25895.591797
1583.208984	26067.523438
1582.208008	25867.386719
1581.206055	26074.195313
1580.204102	25739.376953
1579.202148	26033.453125
1578.200195	25529.150391
1577.198242	25975.281250
1576.195313	25643.251953
1575.192383	25720.208984
1574.189453	25572.810547
1573.186523	25547.578125
1572.182617	25527.337891
1571.178711	25240.576172
1570.174805	25200.482422
1569.170898	25479.111328
1568.166992	25446.451172
1567.162109	25324.205078
1566.158203	25590.189453
1565.153320	25156.982422
1564.147461	25475.125000
1563.142578	25338.048828
1562.136719	25173.679688
1561.130859	25680.537109
1560.125000	25774.628906
1559.119141	25421.427734
1558.113281	25915.494141
1557.106445	26079.021484
1556.099609	26644.757813
1555.092773	26475.382813
1554.084961	26613.867188
1553.078125	26650.544922
1552.070313	26942.765625
1551.062500	27413.468750
1550.054688	27544.199219
1549.045898	28128.642578
1548.038086	28298.833984
1547.029297	28558.181641
1546.020508	29023.101563
1545.011719	29527.468750
1544.001953	30237.220703
1542.992188	30126.945313
1541.982422	30769.423828
1540.972656	31381.927734
1539.962891	31657.580078
1538.952148	32106.330078
1537.942383	32104.630859
1536.931641	32318.121094
1535.919922	32017.148438
1534.909180	31612.458984
1533.897461	31499.621094
1532.886719	31097.675781
1531.874023	30728.015625
1530.862305	30454.851563
1529.850586	29779.212891
1528.837891	29422.398438
1527.825195	28774.406250
1526.812500	28252.566406
1525.799805	27920.962891
1524.786133	28124.904297
1523.772461	27768.792969
1522.758789	26705.003906
1521.745117	26835.093750
1520.731445	26624.917969
1519.716797	26404.970703
1518.702148	26276.291016
1517.687500	25953.027344
1516.672852	25994.453125
1515.657227	26038.326172
1514.642578	25599.583984
1513.626953	26020.156250
1512.610352	25704.658203
1511.594727	25645.199219
1510.579102	25789.958984
1509.562500	25609.980469
1508.545898	25789.113281
1507.529297	25786.230469
1506.511719	25707.144531
1505.494141	25854.191406
1504.477539	25772.666016
1503.458984	25759.957031
1502.441406	25680.937500
1501.423828	25425.148438
1500.405273	25972.273438
1499.386719	25345.886719
1498.368164	25374.992188
1497.348633	25597.916016
1496.330078	25705.451172
1495.310547	25533.353516
1494.291016	25653.115234
1493.271484	25561.996094
1492.250977	25539.542969
1491.231445	25605.314453
1490.210938	25291.308594
1489.190430	25543.263672
1488.168945	25829.398438
1487.148438	25628.166016
1486.126953	25838.275391
1485.105469	25693.414063
1484.083984	25692.982422
1483.061523	25677.871094
1482.040039	26024.761719
1481.017578	25916.658203
1479.995117	26285.359375
1478.971680	25986.580078
1477.949219	26506.630859
1476.925781	26794.343750
1475.902344	27160.107422
1474.878906	27139.820313
1473.855469	27507.800781
1472.831055	27865.859375
1471.806641	28082.199219
1470.782227	28398.501953
1469.757813	28592.679688
1468.733398	29521.019531
1467.708008	29731.953125
1466.682617	30306.109375
1465.657227	30940.972656
1464.631836	31480.513672
1463.605469	32219.648438
1462.579102	32400.558594
1461.552734	33431.492188
1460.526367	34128.355469
1459.500000	34486.492188
1458.472656	35321.601563
1457.445313	35375.113281
1456.417969	35438.335938
1455.390625	35608.570313
1454.362305	35567.125000
1453.334961	35413.835938
1452.306641	35034.500000
1451.277344	34140.000000
1450.249023	34013.828125
1449.219727	33110.183594
1448.191406	32245.785156
1447.162109	31510.466797
1446.131836	30780.306641
1445.102539	30268.945313
1444.072266	29745.658203
1443.041992	29198.318359
1442.011719	28760.384766
1440.981445	28543.373047
1439.950195	27826.855469
1438.918945	27753.179688
1437.887695	27485.597656
1436.856445	27387.785156
1435.825195	27246.392578
1434.792969	27252.843750
1433.760742	26583.498047
1432.728516	26829.826172
1431.696289	26577.287109
1430.663086	26244.968750
1429.629883	26309.697266
1428.596680	25875.943359
1427.563477	26025.388672
1426.530273	25766.015625
1425.496094	25588.966797
1424.461914	25648.919922
1423.427734	25302.763672
1422.393555	25517.414063
1421.358398	25185.923828
1420.323242	25081.642578
1419.288086	24827.662109
1418.252930	25187.105469
1417.217773	24906.650391
1416.181641	25174.207031
1415.145508	24896.281250
1414.109375	25093.757813
1413.073242	25066.824219
1412.036133	25100.189453
1411.000000	24931.005859
1409.962891	25229.550781
1408.924805	25272.498047
1407.887695	25238.318359
1406.849609	25666.699219
1405.812500	25914.255859
1404.773438	26390.478516
1403.735352	26775.011719
1402.697266	27072.726563
1401.658203	27353.468750
1400.619141	27646.123047
1399.580078	27585.031250
1398.540039	27944.855469
1397.500977	27765.896484
1396.460938	27678.367188
1395.420898	27997.080078
1394.380859	27719.689453
1393.339844	27615.402344
1392.298828	27655.279297
1391.257813	27418.957031
1390.216797	27482.867188
1389.175781	27280.285156
1388.133789	27745.007813
1387.091797	27249.701172
1386.049805	27270.402344
1385.007813	27566.931641
1383.964844	27947.267578
1382.922852	27720.853516
1381.879883	28002.714844
1380.835938	28181.402344
1379.792969	28477.421875
1378.749023	28756.546875
1377.706055	28609.230469
1376.661133	28622.408203
1375.617188	29088.060547
1374.573242	28998.207031
1373.528320	29023.255859
1372.483398	29110.500000
1371.438477	29625.886719
1370.392578	29213.125000
1369.347656	29453.296875
1368.301758	29363.466797
1367.255859	29276.062500
1366.208984	29458.714844
1365.163086	29679.515625
1364.116211	29537.156250
1363.069336	29882.023438
1362.022461	29773.103516
1360.974609	29621.261719
1359.927734	29677.111328
1358.879883	30076.533203
1357.832031	30053.537109
1356.783203	30302.447266
1355.735352	30310.408203
1354.686523	30420.880859
1353.637695	30731.525391
1352.588867	31268.429688
1351.539063	31419.128906
1350.490234	31834.173828
1349.440430	32468.150391
1348.390625	32818.507813
1347.339844	33782.906250
1346.290039	33830.566406
1345.239258	34418.371094
1344.188477	35079.679688
1343.137695	35300.667969
1342.085938	35878.273438
1341.034180	36351.019531
1339.982422	36635.777344
1338.930664	36837.230469
1337.878906	37354.617188
1336.826172	37762.507813
1335.773438	37353.187500
1334.720703	37224.242188
1333.667969	37546.425781
1332.614258	37488.695313
1331.561523	37029.933594
1330.507813	36633.050781
1329.453125	36029.953125
1328.399414	35958.351563
1327.344727	35474.203125
1326.290039	34890.687500
1325.235352	34542.058594
1324.180664	34340.488281
1323.125000	34250.351563
1322.070313	33591.777344
1321.014648	33627.339844
1319.958008	33414.285156
1318.902344	33357.546875
1317.845703	33097.300781
1316.789063	32969.664063
1315.732422	32532.181641
1314.675781	31827.621094
1313.618164	31927.330078
1312.560547	31365.035156
1311.502930	30694.250000
1310.445313	29981.205078
1309.386719	29348.791016
1308.329102	29087.496094
1307.270508	28500.402344
1306.210938	27963.138672
1305.152344	27378.886719
1304.092773	27078.095703
1303.033203	26680.685547
1301.973633	26632.595703
1300.914063	26688.306641
1299.853516	26437.429688
1298.792969	26278.605469
1297.732422	25994.916016
1296.671875	26222.742188
1295.611328	26099.402344
1294.549805	26098.605469
1293.488281	25937.656250
1292.426758	25903.923828
1291.364258	25618.306641
1290.302734	25747.058594
1289.240234	26024.005859
1288.177734	25785.591797
1287.114258	25747.214844
1286.051758	25885.228516
1284.988281	25846.843750
1283.924805	25655.675781
1282.861328	26070.941406
1281.796875	25802.261719
1280.732422	25947.156250
1279.667969	26138.962891
1278.603516	25757.718750
1277.539063	25740.533203
1276.473633	25986.242188
1275.408203	25828.205078
1274.342773	26022.169922
1273.277344	26307.535156
1272.210938	26158.908203
1271.145508	26317.501953
1270.079102	26344.750000
1269.011719	25945.419922
1267.945313	26038.341797
1266.877930	25821.976563
1265.810547	25659.574219
1264.743164	25326.289063
1263.674805	25281.119141
1262.607422	25165.744141
1261.539063	24771.921875
1260.470703	24895.357422
1259.401367	24543.863281
1258.333008	24297.761719
1257.263672	24206.089844
1256.194336	24041.984375
1255.125000	23894.306641
1254.054688	23403.179688
1252.985352	23622.498047
1251.915039	23474.998047
1250.843750	23376.601563
1249.773438	23383.310547
1248.702148	23259.292969
1247.630859	22869.269531
1246.559570	23020.744141
1245.488281	22502.626953
1244.416016	22518.835938
1243.343750	22688.937500
1242.271484	22203.855469
1241.199219	22241.089844
1240.125977	22231.699219
1239.053711	22280.556641
1237.980469	22164.007813
1236.906250	22489.992188
1235.833008	22608.611328
1234.758789	22263.927734
1233.684570	22268.498047
1232.610352	22289.353516
1231.536133	22086.861328
1230.460938	22005.404297
1229.385742	22165.820313
1228.310547	22070.425781
1227.235352	22181.945313
1226.159180	22188.837891
1225.083008	22493.123047
1224.006836	22776.373047
1222.930664	22223.419922
1221.853516	22506.603516
1220.777344	22432.158203
1219.700195	22863.712891
1218.622070	22877.398438
1217.544922	22793.636719
1216.466797	23041.593750
1215.388672	23201.322266
1214.310547	23233.464844
1213.232422	23437.123047
1212.153320	23337.099609
1211.074219	23656.494141
1209.995117	23952.583984
1208.916016	23590.802734
1207.835938	24178.529297
1206.755859	24043.720703
1205.675781	23973.775391
1204.595703	23547.496094
1203.514648	23843.218750
1202.434570	23821.927734
1201.353516	23779.830078
1200.271484	23566.658203
1199.190430	23390.560547
1198.108398	23267.689453
1197.026367	23315.851563
1195.944336	23049.822266
1194.862305	22952.503906
1193.779297	22993.769531
1192.696289	22787.996094
1191.613281	22406.896484
1190.530273	22376.710938
1189.446289	22295.779297
1188.362305	21986.529297
1187.278320	21949.529297
1186.194336	22050.880859
1185.109375	21933.199219
1184.024414	21442.218750
1182.939453	21663.423828
1181.854492	21504.429688
1180.768555	21509.027344
1179.683594	21251.119141
1178.597656	21354.757813
1177.510742	21294.931641
1176.424805	21423.826172
1175.337891	20945.285156
1174.250977	21329.513672
1173.164063	20908.689453
1172.077148	21290.457031
1170.989258	21290.478516
1169.901367	20840.050781
1168.813477	21076.828125
1167.724609	21187.154297
1166.636719	20925.365234
1165.547852	21178.039063
1164.458984	21334.181641
1163.369141	21474.189453
1162.280273	21435.146484
1161.190430	21467.238281
1160.100586	21405.271484
1159.010742	21806.566406
1157.919922	21691.816406
1156.829102	21840.724609
1155.738281	21822.267578
1154.647461	21810.689453
1153.555664	21737.263672
1152.464844	21725.705078
1151.373047	21590.501953
1150.280273	21510.296875
1149.188477	21677.318359
1148.095703	21404.908203
1147.002930	21322.501953
1145.910156	21409.392578
1144.817383	21443.646484
1143.723633	21299.548828
1142.629883	21208.087891
1141.536133	20974.970703
1140.441406	21077.826172
1139.347656	21057.281250
1138.252930	20794.652344
1137.158203	20840.392578
1136.062500	20461.494141
1134.967773	20753.779297
1133.872070	20838.285156
1132.776367	20833.777344
1131.679688	20653.638672
1130.583984	20783.714844
1129.487305	20487.384766
1128.390625	20934.277344
1127.292969	20902.398438
1126.196289	20556.105469
1125.098633	20692.884766
1124.000977	20483.431641
1122.903320	20911.615234
1121.804688	20652.119141
1120.706055	20729.578125
1119.607422	20779.695313
1118.508789	20656.890625
1117.409180	20695.625000
1116.310547	20745.712891
1115.210938	20816.236328
1114.110352	20720.798828
1113.010742	20586.769531
1111.910156	20620.923828
1110.809570	20666.419922
1109.708984	20443.912109
1108.607422	20557.541016
1107.506836	20500.863281
1106.405273	20226.332031
1105.303711	20364.888672
1104.201172	20147.214844
1103.098633	20074.792969
1101.996094	20149.792969
1100.893555	20000.318359
1099.791016	20095.697266
1098.687500	20125.318359
1097.583984	20123.203125
1096.480469	20279.648438
1095.376953	20286.556641
1094.272461	20053.462891
1093.167969	20193.968750
1092.063477	20241.623047
1090.958008	20205.537109
1089.853516	20318.767578
1088.748047	20531.458984
1087.642578	20759.886719
1086.536133	20857.091797
1085.430664	20827.681641
1084.324219	21101.083984
1083.217773	21329.179688
1082.110352	21428.427734
1081.003906	21595.376953
1079.896484	21829.982422
1078.789063	21999.025391
1077.680664	21863.330078
1076.573242	22025.519531
1075.464844	22072.591797
1074.356445	21997.857422
1073.247070	21767.572266
1072.138672	21868.767578
1071.029297	21591.279297
1069.919922	21730.771484
1068.809570	21329.527344
1067.700195	21041.070313
1066.589844	20953.152344
1065.479492	21034.119141
1064.368164	20824.689453
1063.257813	20781.876953
1062.146484	20487.097656
1061.035156	20235.183594
1059.922852	20307.214844
1058.811523	20248.806641
1057.699219	20012.839844
1056.586914	19932.044922
1055.473633	20273.697266
1054.361328	20177.152344
1053.248047	19851.564453
1052.134766	19954.992188
1051.021484	19903.472656
1049.907227	19737.507813
1048.792969	19917.181641
1047.678711	19360.923828
1046.564453	19816.480469
1045.449219	19596.855469
1044.333984	19592.552734
1043.218750	19711.531250
1042.103516	19776.673828
1040.987305	19434.015625
1039.871094	19398.384766
1038.754883	19577.761719
1037.638672	19723.472656
1036.521484	19808.679688
1035.404297	19468.619141
1034.287109	19690.330078
1033.169922	19473.480469
1032.051758	19780.076172
1030.933594	19860.695313
1029.815430	19858.560547
1028.697266	19514.457031
1027.578125	19673.285156
1026.458984	19461.183594
1025.339844	19749.500000
1024.220703	19660.291016
1023.100586	19588.982422
1021.980469	19812.341797
1020.860352	19821.365234
1019.740234	19926.322266
1018.619141	19725.632813
1017.498047	19654.376953
1016.376953	19369.105469
1015.255859	19645.708984
1014.133789	19643.601563
1013.011719	19610.300781
1011.889648	19434.439453
1010.767578	19543.738281
1009.644531	19597.316406
1008.521484	19771.087891
1007.398438	19686.593750
1006.274414	19461.947266
1005.151367	19519.939453
1004.027344	19626.837891
1002.902344	19798.177734
1001.778320	19495.882813
1000.653320	19764.972656
999.528320	19611.708984
998.403320	19538.494141
997.278320	19711.876953
996.152344	19962.908203
995.026367	19856.355469
993.900391	20231.552734
992.773438	19918.583984
991.646484	20213.718750
990.519531	20007.371094
989.392578	20386.628906
988.265625	20089.419922
987.137695	20233.498047
986.009766	20557.041016
984.881836	20503.732422
983.752930	20858.083984
982.624023	20525.650391
981.495117	20377.160156
980.366211	20729.083984
979.236328	20505.353516
978.106445	20111.322266
976.976563	20142.257813
975.846680	20175.390625
974.715820	20124.468750
973.585938	20066.935547
972.454102	19722.062500
971.323242	19635.910156
970.191406	19529.910156
969.060547	19708.917969
967.927734	19580.859375
966.795898	19503.640625
965.663086	19574.361328
964.530273	19517.037109
963.397461	19722.320313
962.264648	19620.865234
961.130859	19841.468750
959.997070	19735.619141
958.863281	19724.611328
957.729492	19665.117188
956.594727	19740.068359
955.459961	19555.015625
954.325195	19724.667969
953.189453	19577.134766
952.053711	19447.277344
950.917969	19423.132813
949.782227	19537.638672
948.646484	19456.277344
947.509766	19443.138672
946.373047	19282.658203
945.235352	19366.306641
944.098633	19480.689453
942.960938	19410.410156
941.823242	19344.554688
940.685547	19564.306641
939.546875	19570.919922
938.408203	19669.750000
937.269531	19577.544922
936.129883	19775.093750
934.991211	19816.755859
933.851563	19726.767578
932.711914	19748.679688
931.571289	19766.193359
930.431641	19952.507813
929.291016	20215.451172
928.149414	20042.195313
927.008789	19925.976563
925.867188	20083.607422
924.725586	20184.228516
923.583984	19949.824219
922.441406	19827.156250
921.299805	19630.136719
920.157227	19599.484375
919.013672	19483.537109
917.871094	19238.607422
916.727539	19417.958984
915.583984	19090.083984
914.439453	19037.724609
913.295898	18852.103516
912.151367	19029.191406
911.006836	18828.363281
909.861328	19062.144531
908.716797	18891.957031
907.571289	18806.964844
906.424805	18866.025391
905.279297	18739.623047
904.132813	18796.486328
902.986328	18654.890625
901.839844	18907.951172
900.692383	18724.978516
899.545898	18716.414063
898.398438	18914.822266
897.250000	18958.490234
896.102539	18769.130859
894.954102	18939.083984
893.805664	18926.119141
892.656250	18817.408203
891.507813	18721.796875
890.358398	18717.585938
889.208984	18793.839844
888.058594	18843.966797
886.908203	18948.412109
885.758789	18705.091797
884.607422	18585.724609
883.457031	18820.490234
882.305664	18779.332031
881.154297	18571.001953
880.002930	18677.529297
878.850586	18742.771484
877.698242	18337.130859
876.545898	18502.207031
875.393555	18547.919922
874.240234	18274.863281
873.086914	18459.345703
871.933594	18513.703125
870.780273	18548.531250
869.625977	18403.531250
868.471680	18384.216797
867.317383	18373.572266
866.162109	18536.125000
865.007813	18477.830078
863.852539	18393.591797
862.696289	18599.294922
861.541016	18437.197266
860.384766	18324.908203
859.228516	18448.326172
858.072266	18199.908203
856.915039	18355.710938
855.757813	18122.544922
854.600586	18176.769531
853.442383	18375.658203
852.285156	18382.298828
851.126953	18635.011719
849.968750	18650.220703
848.809570	18160.541016
847.650391	18432.542969
846.491211	18238.587891
845.332031	18064.125000
844.171875	18435.119141
843.012695	18127.066406
841.851563	18441.853516
840.691406	18222.259766
839.530273	18375.351563
838.369141	18095.578125
837.208008	18330.429688
836.046875	18238.035156
834.884766	18240.355469
833.722656	18386.808594
832.560547	18333.173828
831.397461	18275.259766
830.234375	18249.617188
829.071289	18269.119141
827.908203	18271.421875
826.744141	18398.324219
825.580078	18269.574219
824.416016	18308.375000
823.251953	18488.849609
822.086914	18190.597656
820.921875	18227.240234
819.756836	18096.521484
818.590820	18302.613281
817.425781	18268.433594
816.259766	18157.085938
815.092773	18187.255859
813.926758	18118.833984
812.759766	18061.152344
811.592773	17879.261719
810.424805	18215.697266
809.257813	18145.183594
808.089844	18093.964844
806.920898	17850.162109
805.752930	18057.919922
804.583984	18169.320313
803.415039	17900.000000
802.246094	18034.904297
801.076172	17958.119141
799.906250	18152.785156
798.736328	17917.894531
797.566406	17774.962891
796.395508	18170.285156
795.224609	18189.634766
794.053711	18078.755859
792.881836	17948.716797
791.710938	18290.291016
790.538086	18593.308594
789.366211	18704.240234
788.194336	19128.560547
787.021484	19115.671875
785.848633	18689.316406
784.674805	18876.828125
783.500977	19023.775391
782.327148	19074.810547
781.153320	18734.021484
779.979492	18848.962891
778.804688	18716.958984
777.629883	18687.150391
776.454102	18650.974609
775.279297	18491.451172
774.103516	18470.216797
772.927734	18404.345703
771.750977	18621.191406
770.575195	18589.312500
769.398438	18451.222656
768.220703	18661.531250
767.043945	18619.042969
765.866211	19173.146484
764.688477	19238.808594
763.510742	19300.193359
762.332031	19418.832031
761.153320	19613.775391
759.974609	20101.271484
758.794922	20796.314453
757.616211	21238.800781
756.436523	22045.578125
755.255859	23148.599609
754.076172	24782.777344
752.895508	26244.671875
751.714844	28645.941406
750.533203	30760.347656
749.352539	33277.988281
748.170898	35758.503906
746.988281	37565.222656
745.806641	39077.156250
744.624023	38994.203125
743.441406	39202.992188
742.258789	38889.691406
741.075195	37657.433594
739.891602	36863.000000
738.708008	36073.152344
737.523438	35931.863281
736.339844	35383.230469
735.155273	35096.539063
733.969727	34459.726563
732.785156	33432.949219
731.599609	32461.476563
730.414063	30720.841797
729.227539	28757.554688
728.041992	27178.738281
726.855469	25166.589844
725.667969	23471.347656
724.481445	22648.800781
723.293945	21489.734375
722.106445	20878.527344
720.918945	20313.900391
719.730469	19774.783203
718.541992	19612.466797
717.353516	19319.826172
716.164063	18848.587891
714.975586	18850.564453
713.786133	18894.572266
712.595703	18486.791016
711.406250	18375.402344
710.215820	18352.277344
709.025391	18257.767578
707.833984	18007.949219
706.642578	18081.464844
705.451172	18236.783203
704.259766	18115.107422
703.068359	18180.156250
701.875977	18350.015625
700.683594	18526.087891
699.490234	18731.419922
698.297852	19190.205078
697.104492	19686.488281
695.910156	19824.382813
694.716797	20653.238281
693.522461	20799.216797
692.328125	20823.732422
691.132813	21160.025391
689.938477	20841.339844
688.743164	20692.220703
687.547852	20423.974609
686.351563	19978.144531
685.155273	19885.755859
683.958984	19425.625000
682.762695	19233.123047
681.565430	19282.998047
680.368164	19009.171875
679.170898	18750.085938
677.973633	18564.171875
676.775391	18827.001953
675.577148	18666.187500
674.378906	18736.974609
673.179688	18561.656250
671.980469	18613.666016
670.781250	18573.939453
669.581055	18496.718750
668.381836	18477.869141
667.181641	18321.552734
665.980469	18134.068359
664.780273	17979.982422
663.579102	18044.523438
662.377930	18073.654297
661.175781	17900.960938
659.973633	17925.949219
658.771484	17867.742188
657.569336	18154.691406
656.367188	18054.884766
655.164063	18065.263672
653.960938	18322.876953
652.756836	18291.642578
651.552734	18669.531250
650.348633	18876.992188
649.144531	19090.585938
647.939453	19192.013672
646.735352	19260.197266
645.529297	19351.166016
644.324219	19587.257813
643.118164	19333.931641
641.912109	19325.316406
640.706055	19378.876953
639.499023	19026.318359
638.292969	19086.134766
637.084961	18901.550781
635.877930	18543.130859
634.669922	18545.052734
633.461914	18087.542969
632.253906	18029.564453
631.044922	17833.019531
629.836914	18029.500000
628.626953	17824.771484
627.417969	17578.796875
626.208008	17653.261719
624.998047	17733.890625
623.788086	17719.460938
622.577148	17814.490234
621.366211	17418.070313
620.155273	17341.791016
618.944336	17535.900391
617.732422	17352.333984
616.520508	17152.349609
615.308594	17313.367188
614.095703	17220.699219
612.882813	17115.705078
611.669922	17113.804688
610.457031	17330.308594
609.243164	17011.123047
608.029297	17054.552734
606.815430	17167.964844
605.600586	17077.531250
604.385742	17217.640625
603.170898	17123.119141
601.955078	17098.582031
600.740234	17189.226563
599.524414	17179.076172
598.307617	17316.937500
597.091797	17049.861328
595.875000	17175.359375
594.658203	17333.664063
593.440430	17294.734375
592.222656	17009.425781
591.004883	17311.353516
589.787109	17227.300781
588.568359	16946.306641
587.349609	17016.228516
586.130859	16815.396484
584.912109	16952.978516
583.692383	17123.296875
582.472656	17180.810547
581.251953	16855.134766
580.032227	16998.720703
578.811523	17070.556641
577.589844	17007.218750
576.369141	17293.964844
575.147461	17435.265625
573.925781	17502.837891
572.703125	17615.384766
571.481445	17979.435547
570.258789	18128.621094
569.035156	18189.833984
567.812500	18674.080078
566.588867	18806.650391
565.365234	18943.244141
564.140625	19047.093750
562.916992	19330.582031
561.692383	19172.992188
560.466797	19252.222656
559.242188	18966.171875
558.016602	18914.851563
556.791016	18418.937500
555.564453	18296.398438
554.337891	17862.013672
553.111328	17694.820313
551.884766	17515.478516
550.657227	17224.173828
549.429688	17085.755859
548.202148	17187.673828
546.974609	16982.146484
545.746094	16707.513672
544.517578	17181.814453
543.288086	16772.996094
542.058594	16852.490234
540.829102	16846.544922
539.599609	17021.531250
538.370117	16852.953125
537.139648	16712.898438
535.909180	16637.917969
534.677734	16885.902344
533.446289	16668.773438
532.214844	16930.845703
530.983398	16847.759766
529.750977	16671.371094
528.519531	16756.761719
527.286133	16653.490234
526.053711	16584.738281
524.820313	16588.996094
523.586914	16702.697266
522.353516	16775.820313
521.119141	16808.388672
519.884766	16812.587891
518.650391	16656.816406
517.415039	16673.193359
516.179688	16594.435547
514.944336	16677.593750
513.708984	16538.177734
