#Wave		#Intensity
1585.210938	8771.732422
1584.209961	8861.647461
1583.208984	8927.234375
1582.208008	8915.397461
1581.206055	8931.023438
1580.204102	8764.464844
1579.202148	8800.075195
1578.200195	8910.506836
1577.198242	8881.226563
1576.195313	8822.036133
1575.192383	9019.648438
1574.189453	8878.201172
1573.186523	8866.394531
1572.182617	8665.243164
1571.178711	8643.520508
1570.174805	8726.404297
1569.170898	8577.693359
1568.166992	8670.513672
1567.162109	8541.786133
1566.158203	8721.666016
1565.153320	8685.030273
1564.147461	8479.271484
1563.142578	8661.539063
1562.136719	8587.643555
1561.130859	8466.547852
1560.125000	8792.849609
1559.119141	8577.340820
1558.113281	8642.638672
1557.106445	8556.402344
1556.099609	8817.850586
1555.092773	8977.399414
1554.084961	9047.523438
1553.078125	8904.195313
1552.070313	9234.825195
1551.062500	9307.333008
1550.054688	9233.482422
1549.045898	9457.214844
1548.038086	9740.351563
1547.029297	9978.757813
1546.020508	10187.327148
1545.011719	10271.931641
1544.001953	10713.195313
1542.992188	10535.143555
1541.982422	10807.800781
1540.972656	11013.504883
1539.962891	11006.274414
1538.952148	11258.867188
1537.942383	11169.947266
1536.931641	11189.895508
1535.919922	11130.701172
1534.909180	11165.483398
1533.897461	10886.316406
1532.886719	10933.491211
1531.874023	10755.793945
1530.862305	10474.414063
1529.850586	10452.486328
1528.837891	10084.857422
1527.825195	10122.270508
1526.812500	9954.795898
1525.799805	9636.853516
1524.786133	9642.259766
1523.772461	9524.324219
1522.758789	9477.958008
1521.745117	9345.309570
1520.731445	9104.243164
1519.716797	9119.611328
1518.702148	8962.474609
1517.687500	9091.197266
1516.672852	8983.395508
1515.657227	8942.131836
1514.642578	8974.750977
1513.626953	9125.517578
1512.610352	8971.034180
1511.594727	8900.277344
1510.579102	8787.725586
1509.562500	8931.025391
1508.545898	8776.708984
1507.529297	8801.935547
1506.511719	8755.866211
1505.494141	9048.966797
1504.477539	9049.549805
1503.458984	8858.516602
1502.441406	8994.222656
1501.423828	8987.448242
1500.405273	8789.180664
1499.386719	8765.268555
1498.368164	9013.766602
1497.348633	8867.139648
1496.330078	8843.224609
1495.310547	8826.677734
1494.291016	8844.464844
1493.271484	8847.535156
1492.250977	8892.270508
1491.231445	9074.215820
1490.210938	8927.785156
1489.190430	8850.000977
1488.168945	8902.043945
1487.148438	8958.962891
1486.126953	8974.241211
1485.105469	9067.832031
1484.083984	9029.248047
1483.061523	9064.073242
1482.040039	8976.585938
1481.017578	9189.922852
1479.995117	9388.500977
1478.971680	9313.222656
1477.949219	9514.135742
1476.925781	9460.851563
1475.902344	9517.519531
1474.878906	9654.761719
1473.855469	9623.457031
1472.831055	9897.335938
1471.806641	10083.230469
1470.782227	10098.221680
1469.757813	10296.195313
1468.733398	10433.102539
1467.708008	10838.224609
1466.682617	11092.001953
1465.657227	11221.343750
1464.631836	11394.502930
1463.605469	11764.972656
1462.579102	11847.801758
1461.552734	12305.711914
1460.526367	12622.182617
1459.500000	12914.173828
1458.472656	12938.270508
1457.445313	13147.324219
1456.417969	13404.956055
1455.390625	13431.367188
1454.362305	13292.371094
1453.334961	13233.680664
1452.306641	13267.402344
1451.277344	12802.802734
1450.249023	12671.340820
1449.219727	12403.867188
1448.191406	12092.777344
1447.162109	11857.106445
1446.131836	11487.979492
1445.102539	11395.767578
1444.072266	10900.672852
1443.041992	10811.046875
1442.011719	10578.309570
1440.981445	10238.937500
1439.950195	10190.730469
1438.918945	10072.226563
1437.887695	9968.317383
1436.856445	9912.923828
1435.825195	9736.393555
1434.792969	9744.060547
1433.760742	9499.815430
1432.728516	9325.901367
1431.696289	9558.816406
1430.663086	9501.153320
1429.629883	9237.798828
1428.596680	9376.218750
1427.563477	9233.957031
1426.530273	9183.663086
1425.496094	9089.862305
1424.461914	9141.160156
1423.427734	8899.959961
1422.393555	8948.857422
1421.358398	9024.312500
1420.323242	8841.260742
1419.288086	8762.135742
1418.252930	8808.605469
1417.217773	8785.043945
1416.181641	8896.656250
1415.145508	8819.997070
1414.109375	8974.981445
1413.073242	8973.112305
1412.036133	8992.948242
1411.000000	8983.841797
1409.962891	9030.183594
1408.924805	9141.578125
1407.887695	9409.550781
1406.849609	9325.679688
1405.812500	9526.060547
1404.773438	9820.272461
1403.735352	9941.014648
1402.697266	9953.384766
1401.658203	10206.410156
1400.619141	10495.420898
1399.580078	10433.092773
1398.540039	10394.841797
1397.500977	10522.522461
1396.460938	10395.314453
1395.420898	10354.689453
1394.380859	10354.932617
1393.339844	10256.668945
1392.298828	10074.372070
1391.257813	10137.113281
1390.216797	10161.410156
1389.175781	10132.882813
1388.133789	9893.159180
1387.091797	10143.050781
1386.049805	10251.291992
1385.007813	9946.929688
1383.964844	10251.807617
1382.922852	10333.582031
1381.879883	10273.894531
1380.835938	10571.321289
1379.792969	10564.321289
1378.749023	10578.882813
1377.706055	10665.291016
1376.661133	10868.996094
1375.617188	10969.670898
1374.573242	10866.847656
1373.528320	11046.450195
1372.483398	11144.629883
1371.438477	11132.731445
1370.392578	11192.584961
1369.347656	11037.214844
1368.301758	11080.328125
1367.255859	11123.421875
1366.208984	11047.018555
1365.163086	10910.918945
1364.116211	11061.504883
1363.069336	11011.428711
1362.022461	11226.394531
1360.974609	11293.269531
1359.927734	11169.190430
1358.879883	11038.003906
1357.832031	11197.912109
1356.783203	11374.449219
1355.735352	11267.145508
1354.686523	11410.214844
1353.637695	11524.620117
1352.588867	11653.275391
1351.539063	11955.804688
1350.490234	12243.913086
1349.440430	12400.914063
1348.390625	12650.709961
1347.339844	12938.489258
1346.290039	12964.337891
1345.239258	13520.823242
1344.188477	13715.452148
1343.137695	13962.328125
1342.085938	14240.014648
1341.034180	14569.890625
1339.982422	14880.610352
1338.930664	15003.447266
1337.878906	15280.677734
1336.826172	15153.940430
1335.773438	15552.151367
1334.720703	15432.530273
1333.667969	15654.830078
1332.614258	15620.686523
1331.561523	15634.017578
1330.507813	15391.100586
1329.453125	15060.516602
1328.399414	14990.947266
1327.344727	14807.592773
1326.290039	14958.570313
1325.235352	14488.513672
1324.180664	14485.468750
1323.125000	14361.598633
1322.070313	14287.520508
1321.014648	14282.147461
1319.958008	14362.010742
1318.902344	14079.668945
1317.845703	13787.978516
1316.789063	13763.782227
1315.732422	13465.181641
1314.675781	13355.916992
1313.618164	13057.526367
1312.560547	12856.189453
1311.502930	12662.027344
1310.445313	12411.231445
1309.386719	12047.132813
1308.329102	11862.709961
1307.270508	11531.941406
1306.210938	11040.752930
1305.152344	11036.066406
1304.092773	10424.819336
1303.033203	10406.104492
1301.973633	10436.939453
1300.914063	10274.349609
1299.853516	10114.185547
1298.792969	10204.001953
1297.732422	10053.347656
1296.671875	9999.379883
1295.611328	9848.831055
1294.549805	9790.215820
1293.488281	9877.647461
1292.426758	9658.930664
1291.364258	9889.957031
1290.302734	9850.208984
1289.240234	9643.401367
1288.177734	9740.177734
1287.114258	9526.422852
1286.051758	9554.982422
1284.988281	9757.518555
1283.924805	9520.384766
1282.861328	9501.921875
1281.796875	9438.820313
1280.732422	9551.936523
1279.667969	9474.757813
1278.603516	9543.201172
1277.539063	9670.307617
1276.473633	9562.636719
1275.408203	9497.250977
1274.342773	9499.934570
1273.277344	9633.976563
1272.210938	9585.032227
1271.145508	9721.343750
1270.079102	9648.958008
1269.011719	9649.258789
1267.945313	9731.572266
1266.877930	9610.029297
1265.810547	9455.746094
1264.743164	9645.767578
1263.674805	9173.126953
1262.607422	9398.238281
1261.539063	9258.168945
1260.470703	9024.567383
1259.401367	9032.010742
1258.333008	9025.416992
1257.263672	9133.403320
1256.194336	8815.861328
1255.125000	8673.752930
1254.054688	8641.533203
1252.985352	8569.609375
1251.915039	8658.887695
1250.843750	8617.348633
1249.773438	8575.826172
1248.702148	8445.616211
1247.630859	8544.177734
1246.559570	8530.695313
1245.488281	8358.584961
1244.416016	8345.146484
1243.343750	8343.373047
1242.271484	8250.676758
1241.199219	8339.826172
1240.125977	8356.695313
1239.053711	8161.538574
1237.980469	8269.283203
1236.906250	8295.469727
1235.833008	8226.181641
1234.758789	8112.691895
1233.684570	8211.042969
1232.610352	8106.911621
1231.536133	8270.359375
1230.460938	8238.361328
1229.385742	8152.892090
1228.310547	8127.905762
1227.235352	8009.953125
1226.159180	8161.625000
1225.083008	8171.502441
1224.006836	8141.885254
1222.930664	8291.108398
1221.853516	8168.598633
1220.777344	8176.142090
1219.700195	8283.483398
1218.622070	8244.587891
1217.544922	8208.029297
1216.466797	8301.375977
1215.388672	8260.181641
1214.310547	8494.902344
1213.232422	8444.411133
1212.153320	8512.131836
1211.074219	8468.607422
1209.995117	8545.559570
1208.916016	8657.217773
1207.835938	8729.463867
1206.755859	8644.256836
1205.675781	8681.755859
1204.595703	8529.488281
1203.514648	8529.977539
1202.434570	8666.934570
1201.353516	8470.827148
1200.271484	8628.545898
1199.190430	8508.810547
1198.108398	8405.302734
1197.026367	8334.186523
1195.944336	8325.471680
1194.862305	8289.045898
1193.779297	8005.562988
1192.696289	8359.369141
1191.613281	8325.264648
1190.530273	8095.029297
1189.446289	8123.286621
1188.362305	8100.785645
1187.278320	7866.131836
1186.194336	7958.975098
1185.109375	7908.860840
1184.024414	7821.893066
1182.939453	7820.214844
1181.854492	7707.961914
1180.768555	7676.366699
1179.683594	7663.205566
1178.597656	7645.445313
1177.510742	7719.757813
1176.424805	7471.875488
1175.337891	7435.760254
1174.250977	7484.766602
1173.164063	7517.653320
1172.077148	7630.996582
1170.989258	7440.863281
1169.901367	7453.052734
1168.813477	7557.144531
1167.724609	7419.983398
1166.636719	7514.849121
1165.547852	7400.717773
1164.458984	7373.872070
1163.369141	7622.465332
1162.280273	7664.424316
1161.190430	7642.125488
1160.100586	7631.304688
1159.010742	7629.661133
1157.919922	7852.708008
1156.829102	7747.864258
1155.738281	7778.279297
1154.647461	7744.524902
1153.555664	7706.202637
1152.464844	7560.252441
1151.373047	7673.111816
1150.280273	7758.450195
1149.188477	7818.574219
1148.095703	7519.406250
1147.002930	7517.783203
1145.910156	7436.104004
1144.817383	7528.258789
1143.723633	7510.628906
1142.629883	7618.727539
1141.536133	7429.682617
1140.441406	7400.659180
1139.347656	7458.453613
1138.252930	7472.828613
1137.158203	7325.077148
1136.062500	7396.545898
1134.967773	7232.896484
1133.872070	7304.353027
1132.776367	7398.591797
1131.679688	7369.620117
1130.583984	7365.744629
1129.487305	7407.468750
1128.390625	7465.130371
1127.292969	7281.199219
1126.196289	7363.924805
1125.098633	7419.278809
1124.000977	7520.156738
1122.903320	7324.985352
1121.804688	7478.197754
1120.706055	7506.164551
1119.607422	7361.182129
1118.508789	7373.235840
1117.409180	7417.126465
1116.310547	7433.709473
1115.210938	7525.310547
1114.110352	7446.395020
1113.010742	7394.783691
1111.910156	7468.155273
1110.809570	7418.831543
1109.708984	7269.603027
1108.607422	7283.917969
1107.506836	7239.204590
1106.405273	7267.135742
1105.303711	7263.287598
1104.201172	7184.577148
1103.098633	7173.943359
1101.996094	7111.158203
1100.893555	7037.064941
1099.791016	7028.734375
1098.687500	7034.003418
1097.583984	7123.097656
1096.480469	7243.864258
1095.376953	7163.025391
1094.272461	7159.201660
1093.167969	7166.697266
1092.063477	7199.083496
1090.958008	7385.315918
1089.853516	7107.722656
1088.748047	7300.677734
1087.642578	7414.406738
1086.536133	7304.277344
1085.430664	7551.306152
1084.324219	7551.918945
1083.217773	7523.161133
1082.110352	7584.764160
1081.003906	7815.706055
1079.896484	7782.392090
1078.789063	7828.095215
1077.680664	8009.182617
1076.573242	7874.314941
1075.464844	8041.776855
1074.356445	7938.533203
1073.247070	8008.951660
1072.138672	8038.761719
1071.029297	7987.421387
1069.919922	7927.089355
1068.809570	7819.474609
1067.700195	7817.764648
1066.589844	7656.175781
1065.479492	7634.239258
1064.368164	7668.582031
1063.257813	7484.626465
1062.146484	7480.738281
1061.035156	7296.902832
1059.922852	7401.001465
1058.811523	7237.498047
1057.699219	7323.580078
1056.586914	7328.717773
1055.473633	7163.088379
1054.361328	6961.589355
1053.248047	7227.326172
1052.134766	7059.580566
1051.021484	7150.074707
1049.907227	7200.127930
1048.792969	7005.570313
1047.678711	6945.703613
1046.564453	7141.559082
1045.449219	7059.262695
1044.333984	7178.779297
1043.218750	7107.717285
1042.103516	7155.458008
1040.987305	7288.315918
1039.871094	7203.834473
1038.754883	7226.886230
1037.638672	7084.240234
1036.521484	7199.085938
1035.404297	7282.548340
1034.287109	7265.284180
1033.169922	7286.056641
1032.051758	7163.680176
1030.933594	7349.933105
1029.815430	7281.248535
1028.697266	7366.813965
1027.578125	7184.190918
1026.458984	7222.822754
1025.339844	7212.297363
1024.220703	7362.560059
1023.100586	7360.938477
1021.980469	7287.888184
1020.860352	7317.524902
1019.740234	7418.544434
1018.619141	7231.765137
1017.498047	7343.908691
1016.376953	7324.451660
1015.255859	7331.752441
1014.133789	7234.301758
1013.011719	7350.799316
1011.889648	7353.632324
1010.767578	7236.194336
1009.644531	7276.904297
1008.521484	7310.916504
1007.398438	7347.139160
1006.274414	7160.821289
1005.151367	7486.276855
1004.027344	7357.839844
1002.902344	7367.332520
1001.778320	7256.763672
1000.653320	7386.302734
999.528320	7291.333496
998.403320	7236.397461
997.278320	7394.730469
996.152344	7215.428711
995.026367	7289.323242
993.900391	7252.192383
992.773438	7199.541504
991.646484	7355.485840
990.519531	7338.328125
989.392578	7365.534668
988.265625	7499.163086
987.137695	7468.681641
986.009766	7462.593262
984.881836	7409.973633
983.752930	7505.808594
982.624023	7386.753418
981.495117	7529.052734
980.366211	7538.452148
979.236328	7477.016602
978.106445	7338.154297
976.976563	7504.672363
975.846680	7334.896484
974.715820	7364.228516
973.585938	7240.988770
972.454102	7323.379395
971.323242	7182.521973
970.191406	7110.221680
969.060547	7205.838379
967.927734	6954.672363
966.795898	7237.963867
965.663086	7313.618652
964.530273	7353.926270
963.397461	7400.834961
962.264648	7284.472168
961.130859	7545.316406
959.997070	7638.456543
958.863281	7544.162598
957.729492	7683.546387
956.594727	7679.631836
955.459961	7587.592773
954.325195	7605.726563
953.189453	7432.264160
952.053711	7485.649414
950.917969	7283.674316
949.782227	7372.278809
948.646484	7214.421387
947.509766	7248.007813
946.373047	7055.060547
945.235352	7295.345703
944.098633	7155.229492
942.960938	7096.491699
941.823242	7094.907715
940.685547	7150.439453
939.546875	7109.310547
938.408203	7096.744141
937.269531	7237.852539
936.129883	7271.352051
934.991211	7179.761230
933.851563	7246.165039
932.711914	7325.698242
931.571289	7302.132324
930.431641	7350.923828
929.291016	7285.716309
928.149414	7413.376953
927.008789	7448.963379
925.867188	7473.581543
924.725586	7368.984375
923.583984	7260.054199
922.441406	7335.041016
921.299805	7182.397461
920.157227	7233.299805
919.013672	7179.181152
917.871094	7177.572754
916.727539	6959.505371
915.583984	6901.110352
914.439453	6967.313477
913.295898	7040.041504
912.151367	6940.160645
911.006836	6999.756836
909.861328	6954.516602
908.716797	6902.746582
907.571289	6984.134766
906.424805	6827.641602
905.279297	6913.372070
904.132813	6798.404297
902.986328	6949.519043
901.839844	6978.479980
900.692383	6898.446777
899.545898	6888.180664
898.398438	6921.491211
897.250000	6983.102051
896.102539	6881.360840
894.954102	6838.448242
893.805664	6958.804199
892.656250	6804.907227
891.507813	6864.296387
890.358398	6921.482910
889.208984	6943.847656
888.058594	6909.671875
886.908203	6745.087402
885.758789	6754.435547
884.607422	6744.224121
883.457031	6894.764160
882.305664	6762.904785
881.154297	6730.983887
880.002930	6831.495117
878.850586	6877.702637
877.698242	6828.416992
876.545898	6772.645020
875.393555	6751.598633
874.240234	6656.837891
873.086914	6514.425781
871.933594	6705.853027
870.780273	6697.839844
869.625977	6800.315918
868.471680	6865.924805
867.317383	6727.954102
866.162109	6763.239258
865.007813	6666.477539
863.852539	6740.710449
862.696289	6706.736816
861.541016	6687.917969
860.384766	6660.457520
859.228516	6760.566895
858.072266	6696.355469
856.915039	6709.969727
855.757813	6736.540039
854.600586	6715.576660
853.442383	6696.782227
852.285156	6850.720703
851.126953	6646.264648
849.968750	6821.725098
848.809570	6841.757813
847.650391	6732.354004
846.491211	6791.215820
845.332031	6731.462891
844.171875	6785.986328
843.012695	6681.001953
841.851563	6735.510742
840.691406	6589.654785
839.530273	6676.463867
838.369141	6752.466797
837.208008	6699.271484
836.046875	6620.272949
834.884766	6685.476563
833.722656	6679.658691
832.560547	6510.384277
831.397461	6637.924805
830.234375	6737.459961
829.071289	6828.352051
827.908203	6678.534180
826.744141	6700.650879
825.580078	6703.425781
824.416016	6746.999023
823.251953	6618.802246
822.086914	6690.276367
820.921875	6781.030762
819.756836	6903.924805
818.590820	6642.821289
817.425781	6716.367676
816.259766	6798.455566
815.092773	6724.033203
813.926758	6773.936523
812.759766	6759.541992
811.592773	6698.029297
810.424805	6782.166992
809.257813	6600.778320
808.089844	6781.223145
806.920898	6728.319336
805.752930	6844.464844
804.583984	6710.284668
803.415039	6766.499512
802.246094	6722.197754
801.076172	6671.502441
799.906250	6855.914063
798.736328	6649.235352
797.566406	6688.308105
796.395508	6706.005859
795.224609	6755.722656
794.053711	6662.391602
792.881836	6814.537109
791.710938	6748.972168
790.538086	7016.222168
789.366211	6974.100586
788.194336	7079.124023
787.021484	7190.494141
785.848633	7199.511230
784.674805	7170.168457
783.500977	7187.706055
782.327148	7222.273438
781.153320	7120.546387
779.979492	7048.668945
778.804688	7119.425293
777.629883	7092.265625
776.454102	7020.441895
775.279297	6923.127441
774.103516	6961.949219
772.927734	7066.656738
771.750977	6975.772949
770.575195	6838.181152
769.398438	6981.083984
768.220703	7032.589355
767.043945	7169.011230
765.866211	7154.634277
764.688477	7307.945313
763.510742	7272.321289
762.332031	7423.412598
761.153320	7483.226563
759.974609	7629.958008
758.794922	7929.270508
757.616211	8361.983398
756.436523	8605.892578
755.255859	9101.810547
754.076172	9580.555664
752.895508	10355.559570
751.714844	11312.288086
750.533203	12399.815430
749.352539	13721.747070
748.170898	14674.929688
746.988281	15532.487305
745.806641	16601.128906
744.624023	16804.529297
743.441406	16722.466797
742.258789	16932.083984
741.075195	16869.042969
739.891602	17108.099609
738.708008	17317.478516
737.523438	17674.558594
736.339844	18407.216797
735.155273	18951.710938
733.969727	19257.527344
732.785156	19172.951172
731.599609	18871.185547
730.414063	18173.160156
729.227539	16878.884766
728.041992	15277.501953
726.855469	13997.125000
725.667969	12732.079102
724.481445	11669.797852
723.293945	10723.811523
722.106445	9917.195313
720.918945	9256.167969
719.730469	9045.732422
718.541992	8610.299805
717.353516	8313.875977
716.164063	8215.242188
714.975586	7912.738281
713.786133	7570.439453
712.595703	7505.662109
711.406250	7426.208984
710.215820	7357.292969
709.025391	7403.896973
707.833984	7387.500000
706.642578	7232.586426
705.451172	7295.972168
704.259766	7277.511230
703.068359	7252.766113
701.875977	7198.675293
700.683594	7247.333496
699.490234	7482.507324
698.297852	7648.422363
697.104492	7870.824707
695.910156	7938.131348
694.716797	8128.953613
693.522461	8154.297852
692.328125	8432.889648
691.132813	8546.039063
689.938477	8359.967773
688.743164	8479.355469
687.547852	8247.378906
686.351563	8057.322266
685.155273	7909.155273
683.958984	7907.333008
682.762695	7715.394531
681.565430	7627.979492
680.368164	7486.310059
679.170898	7421.952637
677.973633	7497.470703
676.775391	7330.886230
675.577148	7464.806152
674.378906	7358.793945
673.179688	7307.048828
671.980469	7470.068359
670.781250	7522.539551
669.581055	7368.679688
668.381836	7312.811035
667.181641	7254.884766
665.980469	7244.880859
664.780273	7218.225586
663.579102	7195.745117
662.377930	7289.811523
661.175781	7200.746582
659.973633	7134.603027
658.771484	7342.993652
657.569336	7224.868652
656.367188	7235.672852
655.164063	7306.736816
653.960938	7392.311523
652.756836	7413.453613
651.552734	7679.635742
650.348633	7713.157715
649.144531	7742.512207
647.939453	7873.540527
646.735352	7917.366699
645.529297	8039.995605
644.324219	8187.453125
643.118164	7963.713379
641.912109	8036.496094
640.706055	8011.842773
639.499023	8012.062988
638.292969	7945.996582
637.084961	7944.160156
635.877930	7666.950684
634.669922	7685.878418
633.461914	7638.571777
632.253906	7572.665527
631.044922	7657.793457
629.836914	7527.801758
628.626953	7552.939453
627.417969	7518.118652
626.208008	7510.179688
624.998047	7551.832031
623.788086	7490.179688
622.577148	7676.380859
621.366211	7583.756348
620.155273	7643.929199
618.944336	7565.800781
617.732422	7537.227051
616.520508	7465.346680
615.308594	7533.738281
614.095703	7226.838379
612.882813	7340.603027
611.669922	7225.553711
610.457031	7170.309570
609.243164	7145.989746
608.029297	6998.112305
606.815430	6965.606445
605.600586	6945.466797
604.385742	6980.903320
603.170898	6851.716797
601.955078	6971.498535
600.740234	6945.204590
599.524414	6877.798828
598.307617	6896.762207
597.091797	6833.508789
595.875000	6926.442383
594.658203	6896.078613
593.440430	6982.792480
592.222656	6779.952148
591.004883	6842.018066
589.787109	6893.793457
588.568359	6883.988281
587.349609	6751.104004
586.130859	6710.571777
584.912109	6793.084473
583.692383	6816.108887
582.472656	6732.549805
581.251953	6655.175781
580.032227	6907.650879
578.811523	6682.811035
577.589844	6806.164063
576.369141	6960.166016
575.147461	7040.417480
573.925781	7057.200195
572.703125	7217.172852
571.481445	7319.804688
570.258789	7426.478027
569.035156	7598.517578
567.812500	7617.193359
566.588867	7787.064453
565.365234	7877.186035
564.140625	7950.926270
562.916992	7924.579102
561.692383	8098.302734
560.466797	8016.827148
559.242188	7980.279297
558.016602	7700.988281
556.791016	7782.821777
555.564453	7674.985352
554.337891	7434.690918
553.111328	7339.212891
551.884766	7302.870117
550.657227	7207.466309
549.429688	7181.353516
548.202148	6994.391602
546.974609	6893.017090
545.746094	6775.407227
544.517578	6863.365723
543.288086	6959.419922
542.058594	6882.552246
540.829102	6992.790527
539.599609	7060.286133
538.370117	7107.425781
537.139648	7138.287598
535.909180	6982.237305
534.677734	7072.012207
533.446289	6926.201660
532.214844	6902.262695
530.983398	6851.949707
529.750977	6708.319824
528.519531	6830.510742
527.286133	6753.881836
526.053711	6654.983398
524.820313	6781.154785
523.586914	6732.964844
522.353516	6802.322266
521.119141	6752.122559
519.884766	6874.102539
518.650391	6832.008301
517.415039	6674.541016
516.179688	6636.560059
514.944336	6786.780762
513.708984	6728.560547
