#Wave		#Intensity
2109.224609	5004.905762
2107.712891	4925.515137
2106.201172	4995.555176
2104.687500	4992.821777
2103.175781	4991.742676
2101.662109	4916.299805
2100.150391	4956.541992
2098.636719	4990.159668
2097.123047	4954.401367
2095.607422	4979.750000
2094.093750	4955.564453
2092.578125	4970.999023
2091.064453	4971.577148
2089.548828	5034.842773
2088.033203	4923.251953
2086.517578	4953.521484
2085.000000	5016.750000
2083.484375	4951.386719
2081.966797	4956.912109
2080.449219	4921.246094
2078.931641	4915.244629
2077.414063	4861.487793
2075.894531	4952.645020
2074.376953	4921.949219
2072.857422	4993.305176
2071.337891	4977.422363
2069.818359	5017.479492
2068.298828	4848.639160
2066.777344	4864.041016
2065.257813	4986.297363
2063.736328	5006.593750
2062.214844	4933.212891
2060.693359	4900.937500
2059.171875	4899.885742
2057.648438	4984.231445
2056.126953	4933.904785
2054.603516	4886.883301
2053.080078	4938.353516
2051.556641	5075.125488
2050.033203	4867.335449
2048.507813	4874.493164
2046.984375	4947.238770
2045.458984	4854.370605
2043.933594	5009.043945
2042.408203	4930.950684
2040.882813	4962.662598
2039.355469	4959.961914
2037.830078	4942.523926
2036.302734	4948.015625
2034.775391	4753.792969
2033.248047	4952.445313
2031.718750	4930.114258
2030.191406	5001.041016
2028.662109	4833.142578
2027.134766	4961.292969
2025.605469	4888.297852
2024.076172	4959.172852
2022.544922	4982.626465
2021.015625	4943.983887
2019.484375	4946.195313
2017.955078	4951.671875
2016.423828	4875.506348
2014.892578	4939.763184
2013.359375	4806.509766
2011.828125	4944.182617
2010.294922	4915.394043
2008.761719	4933.918457
2007.230469	5017.662598
2005.695313	5044.308594
2004.162109	4906.312988
2002.628906	4988.379395
2001.093750	4913.997559
1999.558594	4979.737793
1998.023438	4975.419922
1996.488281	4941.794434
1994.953125	4880.509277
1993.417969	4887.607422
1991.880859	4836.123047
1990.343750	4848.108398
1988.806641	4921.896973
1987.269531	4862.307129
1985.732422	4992.965820
1984.193359	4884.620605
1982.656250	4872.205566
1981.117188	4872.793945
1979.578125	5004.963379
1978.039063	4882.090332
1976.500000	4934.636719
1974.958984	4870.274414
1973.417969	4838.400879
1971.878906	4877.940918
1970.337891	4925.576172
1968.796875	4830.450684
1967.253906	4954.295898
1965.712891	4914.330566
1964.169922	4879.245605
1962.626953	5058.104004
1961.083984	4971.152832
1959.541016	4949.037598
1957.998047	4884.821289
1956.455078	4908.073730
1954.910156	5000.931152
1953.365234	4896.279297
1951.820313	4914.659180
1950.275391	4936.267578
1948.730469	4928.750000
1947.183594	4971.370117
1945.638672	5043.075684
1944.091797	4936.930664
1942.544922	4943.964844
1940.998047	4960.690918
1939.449219	4886.941406
1937.902344	4881.059570
1936.353516	4871.951172
1934.804688	4887.063477
1933.255859	4971.577637
1931.707031	4947.931152
1930.158203	4798.443848
1928.607422	4831.302734
1927.058594	4906.080078
1925.507813	4982.437988
1923.957031	4953.977051
1922.406250	4954.540039
1920.853516	4837.468750
1919.302734	4876.721191
1917.750000	4882.131836
1916.197266	4840.838379
1914.644531	4999.208984
1913.091797	4862.935059
1911.539063	4969.733398
1909.984375	4901.102539
1908.431641	4903.282715
1906.876953	4800.919434
1905.322266	4830.455566
1903.767578	4868.017578
1902.210938	4818.768066
1900.656250	4878.813965
1899.099609	4943.654785
1897.542969	4957.065918
1895.986328	4925.503906
1894.429688	4884.321777
1892.873047	4902.552246
1891.314453	4861.391602
1889.755859	4881.223633
1888.199219	4833.667969
1886.640625	4887.179688
1885.080078	4884.542480
1883.521484	4897.939453
1881.960938	4808.743652
1880.402344	4913.497070
1878.841797	4922.072266
1877.281250	4897.003418
1875.720703	4897.569824
1874.158203	4824.479980
1872.597656	4841.069824
1871.035156	4828.843262
1869.472656	4879.029297
1867.910156	4884.397949
1866.347656	4849.775879
1864.783203	4740.005859
1863.220703	4810.953125
1861.656250	4840.308594
1860.091797	4836.089355
1858.527344	4956.503906
1856.962891	4891.556641
1855.396484	4904.897949
1853.832031	4862.344238
1852.265625	4827.791016
1850.699219	4877.848145
1849.132813	4787.452148
1847.566406	4807.182129
1845.998047	4889.114258
1844.431641	4854.590820
1842.863281	4863.132324
1841.294922	4830.222656
1839.726563	5022.051758
1838.156250	4868.019043
1836.587891	4911.598633
1835.017578	4792.694824
1833.449219	4895.192383
1831.878906	4805.000000
1830.306641	4874.023438
1828.736328	4857.080078
1827.166016	4964.249512
1825.593750	4877.299805
1824.021484	4873.088867
1822.449219	4899.091309
1820.876953	4918.723633
1819.304688	4935.168945
1817.730469	4967.497559
1816.158203	4926.729980
1814.583984	4906.628418
1813.009766	4950.058594
1811.435547	4958.540039
1809.859375	4889.233887
1808.285156	4872.331055
1806.708984	4766.577148
1805.132813	4836.958496
1803.556641	4899.380371
1801.980469	4887.245605
1800.404297	4870.359375
1798.826172	4901.032227
1797.248047	4925.353027
1795.671875	4911.637695
1794.093750	4847.237793
1792.513672	4820.874512
1790.935547	4862.607910
1789.355469	4864.747070
1787.777344	4847.892090
1786.197266	4891.175293
1784.617188	4899.634766
1783.035156	4881.200684
1781.455078	4891.239258
1779.873047	4896.530273
1778.292969	4878.108398
1776.710938	4986.124512
1775.128906	4955.050293
1773.544922	4906.611816
1771.962891	4899.257813
1770.378906	4901.380859
1768.794922	4851.404785
1767.212891	4803.028320
1765.626953	4868.291504
1764.042969	4913.016602
1762.458984	4937.216797
1760.873047	4828.934082
1759.287109	4903.595703
1757.701172	4875.761230
1756.115234	4849.513672
1754.529297	4865.821777
1752.941406	4902.602539
1751.355469	4923.617188
1749.767578	4821.793945
1748.179688	4912.089355
1746.591797	4967.716797
1745.001953	4957.224121
1743.414063	4852.332520
1741.824219	4860.744629
1740.234375	4839.271484
1738.644531	4874.413086
1737.054688	4948.841309
1735.462891	4950.937988
1733.873047	4912.177734
1732.281250	4969.267578
1730.689453	4856.694824
1729.097656	4993.862305
1727.505859	4980.245605
1725.912109	4913.263184
1724.320313	4913.792969
1722.726563	5041.416992
1721.132813	5107.805664
1719.539063	5022.030762
1717.945313	4953.541016
1716.349609	5068.505371
1714.755859	4938.904785
1713.160156	5030.316895
1711.564453	5079.388184
1709.968750	5139.402832
1708.371094	5117.955566
1706.775391	4994.743164
1705.177734	5024.994141
1703.580078	5178.873535
1701.982422	5094.844727
1700.384766	5125.053711
1698.787109	5050.456055
1697.187500	5180.741699
1695.587891	5121.797363
1693.990234	5109.770508
1692.390625	5218.081543
1690.789063	5166.977539
1689.189453	5242.425781
1687.587891	5238.190918
1685.988281	5174.623047
1684.386719	5279.681641
1682.785156	5188.037109
1681.181641	5263.398926
1679.580078	5335.608398
1677.976563	5275.205078
1676.373047	5325.548340
1674.769531	5249.580566
1673.166016	5391.875977
1671.562500	5415.667480
1669.957031	5430.100098
1668.353516	5509.953613
1666.748047	5541.491211
1665.142578	5544.986328
1663.537109	5616.979492
1661.929688	5665.594727
1660.324219	5767.098145
1658.716797	5719.198730
1657.109375	5957.529785
1655.501953	5875.396484
1653.894531	6132.250000
1652.285156	6154.265137
1650.677734	6129.645020
1649.068359	6372.295410
1647.458984	6315.015137
1645.849609	6361.821777
1644.240234	6414.819336
1642.628906	6442.953613
1641.019531	6542.476074
1639.408203	6662.130371
1637.796875	6781.732910
1636.185547	6626.722168
1634.572266	6701.305176
1632.960938	6797.563477
1631.347656	6844.173828
1629.734375	6810.170410
1628.121094	6824.216797
1626.507813	6807.272461
1624.894531	6873.974609
1623.279297	6931.356445
1621.664063	6985.617188
1620.048828	6894.351563
1618.433594	6868.122070
1616.818359	7032.214355
1615.203125	6916.245117
1613.585938	6990.554199
1611.968750	6964.324707
1610.351563	6924.192383
1608.734375	7123.644043
1607.117188	7066.496094
1605.498047	7106.703125
1603.878906	7120.634277
1602.261719	7255.012207
1600.640625	7295.151367
1599.021484	7251.917969
1597.402344	7373.833984
1595.781250	7534.271484
1594.162109	7665.330078
1592.541016	7663.694336
1590.919922	7571.082031
1589.296875	7717.463867
1587.675781	7635.667969
1586.052734	7692.594727
1584.429688	7674.004883
1582.806641	7576.865234
1581.183594	7619.906738
1579.560547	7507.422363
1577.935547	7658.212891
1576.312500	7605.789063
1574.687500	7354.896973
1573.062500	7399.475098
1571.435547	7348.676270
1569.810547	7500.874023
1568.183594	7400.878418
1566.558594	7371.628906
1564.931641	7545.236328
1563.304688	7403.811523
1561.675781	7465.205078
1560.048828	7477.428711
1558.419922	7644.721191
1556.791016	7752.073730
1555.162109	7883.935547
1553.533203	8095.529785
1551.904297	8253.339844
1550.273438	8509.241211
1548.642578	8648.492188
1547.011719	8971.654297
1545.380859	8957.469727
1543.750000	8794.643555
1542.119141	8645.675781
1540.486328	8363.505859
1538.853516	8043.170898
1537.220703	7912.831543
1535.587891	7817.755371
1533.955078	7664.561523
1532.320313	7548.156738
1530.685547	7554.185059
1529.052734	7304.787598
1527.416016	7330.743652
1525.781250	7277.189453
1524.146484	7162.517578
1522.509766	7136.528320
1520.873047	7171.662598
1519.236328	7063.195801
1517.599609	7038.770020
1515.962891	7078.481445
1514.324219	6974.682617
1512.687500	7020.494629
1511.048828	7031.190918
1509.410156	6965.605957
1507.771484	7011.388184
1506.130859	6936.685059
1504.492188	6846.767578
1502.851563	6811.760742
1501.210938	6711.240723
1499.570313	6645.805176
1497.927734	6773.849121
1496.287109	6723.656250
1494.644531	6740.478516
1493.001953	6742.070313
1491.359375	6627.994141
1489.716797	6725.468750
1488.074219	6628.178711
1486.429688	6655.646973
1484.785156	6786.504395
1483.140625	6962.913574
1481.496094	6988.770020
1479.851563	7219.765137
1478.207031	7215.167969
1476.560547	7257.660156
1474.914063	7520.336914
1473.267578	7587.036621
1471.621094	7555.037598
1469.972656	7494.216309
1468.326172	7547.220703
1466.677734	7375.684082
1465.029297	7383.189453
1463.380859	7307.291504
1461.732422	7239.005859
1460.082031	7267.753906
1458.431641	7207.082031
1456.783203	7060.078125
1455.132813	7046.432129
1453.480469	6814.720703
1451.830078	6696.662598
1450.177734	6702.780762
1448.527344	6554.528809
1446.875000	6509.229492
1445.220703	6397.388672
1443.568359	6396.001953
1441.916016	6210.140625
1440.261719	6140.764648
1438.607422	6295.109863
1436.953125	6086.723145
1435.298828	6185.113770
1433.642578	6191.323242
1431.988281	6025.376465
1430.332031	5993.872559
1428.675781	5989.551758
1427.019531	5864.501465
1425.361328	5828.524902
1423.705078	5840.834961
1422.046875	5819.959473
1420.388672	5853.374023
1418.730469	5761.651855
1417.072266	5718.197754
1415.412109	5860.104004
1413.753906	5661.475586
1412.093750	5731.034668
1410.433594	5830.679688
1408.773438	5772.200195
1407.111328	6118.644531
1405.451172	6052.602539
1403.789063	6270.947754
1402.126953	6385.406250
1400.464844	6603.582520
1398.802734	6775.052734
1397.138672	6650.310547
1395.474609	6552.674316
1393.812500	6564.768066
1392.146484	6531.788574
1390.482422	6315.588379
1388.818359	6371.270508
1387.152344	6273.798828
1385.486328	6288.938965
1383.820313	6353.592773
1382.154297	6440.721680
1380.488281	6575.810547
1378.820313	6625.360840
1377.154297	6916.276367
1375.486328	6944.743652
1373.818359	6995.677734
1372.148438	7197.918457
1370.480469	7030.066895
1368.810547	6998.575684
1367.140625	6974.583496
1365.470703	6782.937012
1363.800781	6750.021484
1362.130859	6730.586914
1360.458984	6805.409668
1358.787109	6747.082031
1357.115234	6738.126953
1355.443359	6652.927734
1353.771484	6708.268066
1352.097656	6796.459961
1350.423828	7075.851563
1348.751953	7181.847656
1347.076172	7511.806641
1345.402344	7792.348633
1343.728516	8110.085449
1342.052734	8491.855469
1340.376953	8764.535156
1338.701172	9123.616211
1337.025391	9481.046875
1335.347656	9619.126953
1333.671875	9824.230469
1331.994141	9865.293945
1330.316406	9976.373047
1328.638672	9880.321289
1326.960938	9878.147461
1325.281250	9756.841797
1323.601563	9616.235352
1321.921875	9404.241211
1320.242188	9181.922852
1318.562500	8986.482422
1316.880859	8687.002930
1315.201172	8472.422852
1313.519531	8311.462891
1311.837891	8052.462402
1310.154297	7913.957520
1308.472656	7750.252930
1306.789063	7582.163086
1305.105469	7415.631836
1303.421875	7167.505371
1301.738281	7081.303223
1300.054688	6815.547852
1298.369141	6627.071777
1296.683594	6481.701660
1294.998047	6357.160645
1293.312500	6148.147949
1291.626953	6090.450684
1289.939453	5954.218262
1288.253906	6012.178223
1286.566406	5873.059570
1284.878906	5768.070801
1283.189453	5907.483887
1281.501953	5829.184082
1279.812500	5796.807129
1278.123047	5804.402832
1276.433594	5782.401855
1274.744141	5877.275391
1273.052734	6022.391113
1271.363281	5867.276367
1269.671875	5945.804688
1267.980469	5934.140137
1266.289063	5694.919434
1264.595703	5736.498535
1262.904297	5584.570313
1261.210938	5649.781250
1259.517578	5551.086914
1257.824219	5465.720703
1256.128906	5498.447266
1254.435547	5492.799316
1252.740234	5493.053711
1251.044922	5477.084961
1249.349609	5490.610840
1247.652344	5427.479492
1245.957031	5461.641113
1244.259766	5404.436523
1242.562500	5451.845215
1240.865234	5409.394531
1239.167969	5334.568848
1237.468750	5255.359863
1235.769531	5242.415039
1234.072266	5291.275391
1232.371094	5298.922363
1230.671875	5258.030273
1228.972656	5252.446289
1227.271484	5276.266602
1225.570313	5316.243652
1223.869141	5256.278809
1222.167969	5366.759766
1220.464844	5380.249512
1218.763672	5355.552734
1217.060547	5320.588867
1215.357422	5197.570313
1213.654297	5133.306641
1211.949219	5073.472168
1210.246094	5160.348145
1208.541016	5065.337402
1206.835938	5037.812988
1205.130859	5098.251953
1203.423828	4997.454590
1201.718750	5103.295898
1200.011719	4970.314453
1198.304688	4906.226074
1196.597656	5041.299316
1194.888672	5029.922363
1193.181641	4888.293457
1191.472656	4970.601563
1189.763672	4953.395020
1188.054688	5009.324707
1186.343750	5012.587891
1184.634766	4938.367188
1182.923828	4994.260742
1181.212891	4950.763184
1179.501953	5018.315430
1177.791016	5021.569824
1176.078125	5005.839355
1174.365234	4981.354980
1172.652344	4974.396973
1170.939453	5092.940918
1169.226563	5154.531250
1167.511719	5081.898926
1165.798828	5184.295410
1164.083984	5228.326660
1162.369141	5283.998047
1160.652344	5357.132324
1158.937500	5393.808105
1157.220703	5402.789551
1155.503906	5455.457031
1153.787109	5420.739746
1152.070313	5518.504395
1150.351563	5592.938965
1148.632813	5497.100586
1146.916016	5484.223145
1145.195313	5245.923340
1143.476563	5217.112305
1141.757813	5077.832031
1140.037109	5070.872070
1138.316406	5069.726563
1136.595703	4942.193848
1134.875000	4791.479980
1133.152344	4758.451172
1131.429688	4718.178711
1129.708984	4627.124023
1127.984375	4618.822266
1126.261719	4588.762207
1124.539063	4547.111816
1122.814453	4533.031738
1121.089844	4447.918457
1119.365234	4444.012695
1117.640625	4405.329102
1115.914063	4323.198730
1114.187500	4403.333496
1112.462891	4321.239746
1110.734375	4334.738281
1109.007813	4333.755859
1107.281250	4309.618652
1105.552734	4320.215332
1103.824219	4235.338379
1102.095703	4133.145508
1100.367188	4171.245117
1098.636719	4226.672852
1096.908203	4139.001953
1095.177734	4156.845215
1093.447266	4171.790527
1091.714844	4037.976318
1089.984375	4058.716309
1088.251953	4059.237061
1086.519531	4107.383301
1084.787109	3978.032227
1083.054688	4132.923340
1081.320313	4029.584473
1079.585938	4084.901367
1077.851563	4098.387207
1076.117188	4091.688721
1074.382813	4126.779297
1072.648438	4085.502930
1070.912109	4021.200439
1069.175781	4054.842041
1067.439453	4059.676025
1065.701172	4047.236084
1063.964844	4041.996094
1062.226563	4069.846191
1060.488281	4018.577393
1058.750000	4046.419189
1057.011719	4103.000488
1055.271484	4079.066895
1053.531250	4037.899902
1051.791016	4052.780518
1050.050781	4086.325928
1048.310547	4056.672119
1046.568359	4131.834961
1044.826172	4076.347168
1043.083984	4119.899902
1041.341797	4051.527588
1039.599609	4046.297363
1037.855469	4026.729004
1036.113281	4117.563477
1034.369141	4076.486328
1032.623047	4158.668945
1030.878906	4080.349854
1029.132813	4079.414795
1027.386719	4092.800537
1025.640625	4166.311523
1023.894531	4216.886719
1022.148438	4270.299805
1020.400391	4157.722656
1018.652344	4228.289063
1016.904297	4207.297852
1015.156250	4345.018066
1013.406250	4289.702148
1011.658203	4323.015137
1009.908203	4307.734375
1008.158203	4249.606934
1006.408203	4247.202637
1004.656250	4249.081543
1002.904297	4256.669434
1001.152344	4262.826172
999.400391	4163.396484
997.648438	4115.365234
995.896484	4145.793457
994.142578	4057.864502
992.388672	4044.101074
990.634766	3990.438965
988.878906	4087.833008
987.125000	4061.250244
985.369141	4053.193604
983.613281	4123.451660
981.857422	4071.254639
980.099609	3999.156494
978.343750	4083.605713
976.585938	3977.396484
974.828125	3987.856445
973.070313	3937.170410
971.310547	3963.270996
969.552734	3992.201660
967.792969	4012.593018
966.033203	3937.797119
964.273438	4010.739502
962.511719	4133.344727
960.750000	4148.004395
958.990234	4290.389648
957.226563	4373.114258
955.464844	4271.382813
953.703125	4308.687500
951.939453	4177.240723
950.175781	4140.833984
948.412109	4036.413818
946.648438	3941.960449
944.882813	3901.382324
943.117188	3897.645996
941.351563	3902.406982
939.585938	3851.955322
937.820313	3831.248291
936.052734	3803.475586
934.285156	3935.571289
932.517578	3831.412598
930.750000	3803.657959
928.982422	3904.559814
927.212891	3806.133057
925.443359	3815.140869
923.673828	3855.223145
921.904297	3792.184082
920.132813	3760.238770
918.361328	3849.714355
916.591797	3805.067139
914.818359	3805.593994
913.046875	3814.584473
911.275391	3707.918457
909.501953	3771.919189
907.728516	3724.520508
905.955078	3780.030518
904.179688	3662.197510
902.406250	3709.242676
900.630859	3784.434326
898.855469	3835.652832
897.080078	3729.177002
895.302734	3759.272217
893.525391	3693.669434
891.750000	3781.436279
889.970703	3755.238770
888.193359	3736.083740
886.416016	3846.270996
884.636719	3709.043457
882.857422	3577.499756
881.078125	3568.236328
879.296875	3662.909180
877.517578	3614.312988
875.736328	3582.584961
873.955078	3562.099609
872.173828	3544.429688
870.390625	3415.942383
868.609375	3444.597656
866.826172	3506.891602
865.042969	3501.866455
863.259766	3516.465088
861.474609	3543.667236
859.689453	3474.195313
857.904297	3473.383057
856.119141	3480.971924
854.333984	3508.155518
852.546875	3438.755615
850.761719	3397.372803
848.974609	3459.528809
847.185547	3497.879639
845.398438	3483.077881
843.609375	3465.486816
841.822266	3397.589844
840.031250	3466.657959
838.242188	3414.158203
836.453125	3418.944580
834.662109	3510.299072
832.871094	3455.032959
831.080078	3496.092285
829.289063	3438.064209
827.496094	3442.837646
825.703125	3377.875244
823.910156	3372.899658
822.117188	3469.688477
820.324219	3315.569092
818.529297	3422.078857
816.734375	3404.558838
814.939453	3430.220703
813.144531	3425.237549
811.347656	3457.842041
809.550781	3429.195068
807.755859	3458.999512
805.957031	3434.538330
804.160156	3385.054932
802.361328	3398.163086
800.564453	3347.320801
798.765625	3391.005615
796.964844	3342.967285
795.166016	3419.970215
793.365234	3409.443848
791.564453	3421.137451
789.763672	3463.363525
787.962891	3483.364990
786.160156	3522.781250
784.359375	3391.560059
782.556641	3458.714844
780.751953	3387.188965
778.949219	3422.430908
777.144531	3364.805176
775.339844	3460.997314
773.535156	3439.403564
771.730469	3331.958740
769.925781	3425.320557
768.119141	3344.229004
766.312500	3459.685303
764.505859	3386.924316
762.697266	3424.855225
760.890625	3432.344238
759.082031	3443.977051
757.273438	3491.542236
755.464844	3627.527100
753.654297	3565.880371
751.845703	3646.532471
750.035156	3776.859863
748.224609	3981.678223
746.412109	4095.300537
744.601563	4392.403320
742.789063	4957.013672
740.976563	5857.906738
739.164063	7344.438965
737.349609	9431.360352
735.537109	11783.309570
733.722656	13693.185547
731.908203	14341.585938
730.091797	13445.669922
728.277344	11264.039063
726.460938	8875.558594
724.644531	6855.698730
722.828125	5478.031250
721.009766	4691.198730
719.193359	4117.924316
717.375000	4002.818359
715.556641	3725.547119
713.736328	3654.569092
711.917969	3561.638916
710.097656	3588.270020
708.277344	3459.689697
706.457031	3379.228760
704.636719	3344.107910
702.814453	3394.095703
700.992188	3439.943359
699.169922	3392.485596
697.347656	3409.510010
695.523438	3433.381836
693.699219	3453.129639
691.875000	3437.234375
690.050781	3587.138672
688.226563	3582.177246
686.400391	3668.976807
684.574219	3662.628662
682.748047	3628.905762
680.921875	3570.564209
679.095703	3521.827881
677.267578	3496.368896
675.439453	3473.656738
673.611328	3512.481689
671.781250	3455.602539
669.953125	3568.209473
668.123047	3571.459961
666.292969	3591.100098
664.460938	3513.770752
662.630859	3594.853516
660.798828	3618.568115
658.966797	3605.425537
657.134766	3716.443115
655.302734	3673.274414
653.468750	3740.584473
651.634766	3735.604248
649.800781	3757.886719
647.966797	3782.883545
646.130859	3737.024414
644.294922	3726.600098
642.458984	3752.947510
640.623047	3634.972168
638.787109	3628.662109
636.949219	3697.196777
635.111328	3631.014648
633.273438	3714.476807
631.435547	3598.009521
629.595703	3654.249756
627.757813	3753.955322
625.917969	3615.819824
624.076172	3652.995850
622.236328	3654.841309
620.394531	3436.714111
618.552734	3482.050537
616.710938	3394.359375
614.869141	3295.854492
613.025391	3224.527588
611.183594	3263.089111
609.339844	3214.854004
607.494141	3207.309082
605.650391	3145.557129
603.804688	3152.936035
601.958984	3169.793701
600.113281	3109.448242
598.267578	3108.706055
596.419922	3099.842285
594.572266	3164.061523
592.724609	3092.950195
590.876953	3065.158203
589.027344	3122.577393
587.179688	3044.766113
585.330078	3087.293457
583.480469	3083.853271
581.628906	3081.765381
579.779297	3126.954346
577.927734	3076.241943
576.076172	3117.359619
574.222656	3097.718018
572.371094	3173.896240
570.517578	3166.392090
568.664063	3181.820801
566.810547	3216.120850
564.955078	3176.255371
563.101563	3312.975098
561.246094	3116.793945
559.390625	3226.518311
557.533203	3213.625000
555.677734	3239.787354
553.820313	3173.047607
551.962891	3126.528076
550.105469	3186.331543
548.246094	3048.353027
546.386719	3000.551270
544.527344	2942.014893
542.667969	3032.722900
540.808594	3021.245605
538.947266	3029.928223
537.085938	3050.696533
535.224609	3020.420410
533.363281	3041.180664
531.500000	3001.524170
529.638672	2947.124268
527.775391	2939.710205
525.910156	2971.200195
524.046875	3096.550293
522.181641	3495.354736
520.316406	3958.309082
518.451172	3787.166748
516.585938	3357.525635
514.718750	3021.853271
512.851563	2912.658447
510.984375	2845.019287
509.117188	2876.462402
507.250000	2820.907715
505.380859	2801.501953
503.511719	2802.168457
501.642578	2741.322021
499.771484	2735.317871
497.902344	2770.750488
496.031250	2814.183838
494.160156	2792.134521
492.287109	2815.507080
490.416016	2776.108643
488.542969	2810.153320
486.669922	2773.443848
484.796875	2800.800781
482.921875	2858.827148
481.046875	2784.788086
479.171875	2885.458496
477.296875	2822.112793
475.421875	2810.774658
473.544922	2798.109131
471.667969	2734.829346
469.791016	2746.160156
467.914063	2865.334961
466.035156	2776.791992
464.156250	2840.006836
462.277344	2780.783203
460.398438	2753.512939
458.519531	2724.925537
456.638672	2644.498779
454.757813	2758.179932
452.876953	2722.966797
450.994141	2810.002197
449.113281	2749.555908
447.230469	2702.417969
445.347656	2699.114990
443.462891	2725.014648
441.580078	2691.186279
439.695313	2767.489502
437.810547	2651.431396
435.925781	2705.164307
434.039063	2727.053711
432.152344	2673.383057
430.267578	2701.894531
428.378906	2670.776855
426.492188	2652.918701
424.603516	2617.854736
422.714844	2652.970947
420.826172	2733.069824
418.937500	2631.851318
417.046875	2709.270752
415.158203	2630.589844
413.265625	2735.739746
411.375000	2646.514404
409.484375	2651.166504
407.591797	2613.534668
405.699219	2620.834229
403.806641	2609.640869
401.912109	2721.245361
400.019531	2633.470947
